Time (s),Pressure 1 (kPa),Pressure 2 (kPa),Switch State
0.115,-7.61,-7.86,1
0.135,-7.61,-7.86,1
0.156,-7.61,-7.86,1
0.176,-7.61,-7.86,1
0.196,-7.61,-7.86,1
0.216,-7.61,-7.86,1
0.235,-7.61,-7.86,1
0.255,-7.61,-7.86,1
0.276,-7.49,-7.86,1
0.295,-7.49,-7.86,1
0.316,-7.49,-7.86,1
0.336,-7.49,-7.86,1
0.355,-7.61,-7.86,1
0.375,-7.49,-7.86,1
0.395,-7.49,-7.86,1
0.416,-7.61,-7.86,1
0.435,-7.49,-7.86,1
0.455,-7.49,-7.86,1
0.476,-7.61,-7.86,1
0.495,-7.49,-7.86,1
0.516,-7.61,-7.86,1
0.537,-7.61,-7.86,1
0.556,-7.61,-7.86,1
0.576,-7.49,-7.86,1
0.596,-7.49,-7.86,1
0.617,-7.49,-7.86,1
0.637,-7.61,-7.86,1
0.656,-7.49,-7.86,1
0.677,-7.49,-7.86,1
0.697,-7.61,-7.86,1
0.717,-7.61,-7.86,1
0.736,-7.49,-7.86,1
0.756,-7.49,-7.86,1
0.776,-7.61,-7.86,1
0.796,-7.61,-7.86,1
0.816,-7.49,-7.86,1
0.836,-7.49,-7.86,1
0.857,-7.49,-7.86,1
0.876,-7.49,-7.86,1
0.896,-7.61,-7.86,1
0.916,-7.49,-7.86,1
0.916,-7.49,-7.86,1
0.937,-7.49,-7.86,1
0.957,-7.61,-7.86,1
0.977,-7.61,-7.86,1
0.996,-7.49,-7.86,1
1.016,-7.49,-7.86,1
1.037,-7.61,-7.86,1
1.057,-7.49,-7.86,1
1.077,-7.49,-7.86,1
1.097,-7.49,-7.86,1
1.117,-7.61,-7.86,1
1.137,-7.49,-7.86,1
1.157,-7.61,-7.86,1
1.177,-7.61,-7.86,1
1.196,-7.61,-7.86,1
1.217,-7.61,-7.86,1
1.237,-7.49,-7.86,1
1.256,-7.49,-7.86,1
1.277,-7.49,-7.86,1
1.297,-7.49,-7.86,1
1.316,-7.61,-7.86,1
1.316,-7.49,-7.86,1
1.337,-7.49,-7.86,1
1.357,-7.61,-7.86,1
1.377,-7.61,-7.86,1
1.397,-7.61,-7.86,1
1.416,-7.49,-7.86,1
1.437,-7.49,-7.86,1
1.457,-7.49,-7.98,1
1.477,-7.49,-7.86,1
1.497,-7.49,-7.86,1
1.517,-7.49,-7.86,1
1.537,-7.61,-7.86,1
1.557,-7.61,-7.86,1
1.577,-7.61,-7.86,1
1.597,-7.61,-7.86,1
1.617,-7.61,-7.86,1
1.637,-7.61,-7.86,1
1.657,-7.61,-7.86,1
1.677,-7.49,-7.86,1
1.697,-7.49,-7.86,1
1.717,-7.61,-7.86,1
1.717,-7.49,-7.86,1
1.738,-7.61,-7.86,1
1.757,-7.61,-7.86,1
1.778,-7.61,-7.86,1
1.798,-7.49,-7.86,1
1.817,-7.49,-7.86,1
1.837,-7.61,-7.86,1
1.858,-7.49,-7.86,1
1.877,-7.49,-7.86,1
1.898,-7.61,-7.86,1
1.918,-7.49,-7.86,1
1.938,-7.49,-7.86,1
1.958,-7.49,-7.86,1
1.978,-7.61,-7.86,1
1.998,-7.49,-7.86,1
2.017,-7.61,-7.86,1
2.038,-7.49,-7.86,1
2.057,-7.61,-7.86,1
2.078,-7.49,-7.86,1
2.098,-7.49,-7.86,1
2.118,-7.61,-7.86,1
2.138,-7.49,-7.86,1
2.159,-7.61,-7.86,1
2.178,-7.49,-7.86,1
2.198,-7.49,-7.98,1
2.218,-7.49,-7.86,1
2.239,-7.49,-7.86,1
2.258,-7.49,-7.86,1
2.278,-7.49,-7.86,1
2.298,-7.49,-7.86,1
2.319,-7.49,-7.86,1
2.338,-7.61,-7.86,1
2.358,-7.49,-7.86,1
2.378,-7.61,-7.86,1
2.398,-7.61,-7.86,1
2.418,-7.49,-7.86,1
2.438,-7.61,-7.86,1
2.459,-7.61,-7.86,1
2.478,-7.61,-7.86,1
2.498,-7.49,-7.86,1
2.518,-7.61,-7.86,1
2.518,-7.49,-7.86,1
2.539,-7.49,-7.86,1
2.558,-7.49,-7.86,1
2.579,-7.61,-7.86,1
2.599,-7.61,-7.86,1
2.618,-7.61,-7.86,1
2.638,-7.61,-7.86,1
2.659,-7.49,-7.86,1
2.678,-7.61,-7.86,1
2.699,-7.49,-7.86,1
2.718,-7.49,-7.86,1
2.739,-7.49,-7.86,1
2.759,-7.49,-7.86,1
2.778,-7.61,-7.86,1
2.798,-7.61,-7.86,1
2.819,-7.61,-7.86,1
2.839,-7.49,-7.86,1
2.859,-7.49,-7.86,1
2.879,-7.49,-7.86,1
2.898,-7.49,-7.86,1
2.918,-7.61,-7.86,1
2.939,-7.49,-7.86,1
2.959,-7.49,-7.86,1
2.979,-7.49,-7.98,1
2.999,-7.49,-7.86,1
3.018,-7.49,-7.86,1
3.039,-7.61,-7.86,1
3.059,-7.49,-7.86,1
3.079,-7.49,-7.86,1
3.099,-7.61,-7.86,1
3.12,-7.61,-7.86,1
3.139,-7.49,-7.86,1
3.159,-7.49,-7.86,1
3.179,-7.49,-7.86,1
3.199,-7.61,-7.86,1
3.219,-7.61,-7.86,1
3.239,-7.49,-7.86,1
3.264,-7.61,-7.86,1
3.279,-7.49,-7.86,1
3.299,-7.49,-7.86,1
3.319,-7.61,-7.86,1
3.319,-7.37,-7.86,1
3.34,-7.37,-7.98,1
3.36,-7.25,-7.86,1
3.38,-7.25,-7.86,1
3.4,-7.37,-7.86,1
3.42,-7.37,-7.86,1
3.44,-7.37,-7.86,1
3.459,-7.49,-7.86,1
3.48,-7.49,-7.86,1
3.5,-7.49,-7.86,1
3.519,-7.49,-7.86,1
3.54,-7.49,-7.86,1
3.56,-7.49,-7.86,1
3.58,-7.49,-7.86,1
3.6,-7.49,-7.86,1
3.62,-7.49,-7.86,1
3.64,-7.49,-7.86,1
3.66,-7.49,-7.98,1
3.68,-7.49,-8.22,1
3.7,-7.49,-8.59,1
3.72,-7.49,-8.83,1
3.74,-7.49,-9.08,1
3.76,-7.49,-8.83,1
3.781,-7.49,-8.59,1
3.8,-7.49,-8.47,1
3.82,-7.49,-8.22,1
3.84,-7.49,-8.1,1
3.861,-7.49,-8.1,1
3.88,-7.49,-7.98,1
3.9,-7.49,-7.98,1
3.92,-7.61,-7.98,1
3.94,-7.61,-7.98,1
3.96,-7.49,-7.98,1
3.981,-7.49,-7.86,1
4,-7.49,-7.98,1
4.02,-7.61,-7.98,1
4.04,-7.49,-7.86,1
4.06,-7.61,-7.86,1
4.08,-7.49,-7.86,1
4.1,-7.49,-7.86,1
4.12,-7.61,-7.86,1
4.12,-7.49,-7.98,1
4.141,-7.49,-7.86,1
4.161,-7.61,-7.86,1
4.18,-7.49,-7.86,1
4.2,-7.61,-7.86,1
4.221,-7.49,-7.86,1
4.241,-7.49,-7.98,1
4.261,-7.61,-7.98,1
4.281,-7.49,-7.86,1
4.3,-7.49,-7.86,1
4.327,-7.61,-7.98,1
4.341,-7.49,-7.86,1
4.361,-7.49,-7.86,1
4.381,-7.61,-7.86,1
4.401,-7.61,-7.86,1
4.421,-7.49,-7.86,1
4.441,-7.49,-7.86,1
4.461,-7.61,-7.86,1
4.48,-7.49,-7.86,1
4.501,-7.61,-7.86,1
4.521,-7.49,-7.86,1
4.521,-7.61,-7.98,1
4.542,-7.49,-7.98,1
4.562,-7.37,-7.98,1
4.582,-6.63,-7.61,1
4.602,-6.02,-7.12,1
4.621,-5.66,-6.63,1
4.642,-5.29,-6.27,1
4.662,-5.05,-6.02,1
4.681,-4.8,-5.78,1
4.702,-4.68,-5.66,1
4.722,-4.31,-5.54,1
4.742,-4.31,-5.41,1
4.762,-4.31,-5.29,1
4.782,-4.31,-5.17,1
4.802,-4.31,-5.17,1
4.821,-4.19,-5.05,1
4.847,-4.19,-5.05,1
4.862,-4.19,-5.05,1
4.882,-4.07,-5.05,1
4.902,-3.95,-4.92,1
4.922,-3.95,-5.05,0
4.922,-3.95,-4.92,0
4.943,-3.95,-4.92,0
4.963,-3.82,-4.92,0
4.983,-3.95,-4.8,0
5.003,-3.95,-4.8,0
5.023,-3.82,-4.8,0
5.042,-3.82,-4.8,0
5.063,-3.82,-4.68,0
5.083,-3.82,-4.68,0
5.103,-3.82,-4.8,0
5.123,-3.82,-4.8,0
5.143,-3.95,-4.8,0
5.163,-3.95,-4.8,0
5.183,-3.7,-4.92,0
5.203,-3.7,-4.8,0
5.223,-3.7,-4.8,0
5.242,-3.7,-4.8,0
5.262,-3.7,-4.8,0
5.283,-3.82,-4.68,0
5.303,-3.7,-4.68,0
5.323,-3.82,-4.68,0
5.323,-3.82,-4.68,0
5.343,-3.7,-4.68,0
5.364,-3.82,-4.68,0
5.383,-3.82,-4.8,0
5.404,-3.7,-4.92,0
5.423,-3.82,-4.92,0
5.444,-3.7,-4.8,0
5.463,-3.58,-4.68,0
5.484,-3.58,-4.68,0
5.503,-3.58,-4.56,0
5.524,-3.58,-4.68,0
5.544,-3.58,-4.56,0
5.564,-3.58,-4.56,0
5.584,-3.58,-4.68,0
5.604,-4.31,-5.29,0
5.624,-5.41,-6.27,0
5.644,-6.27,-7,0
5.664,-6.76,-8.1,0
5.684,-7.25,-8.96,0
5.704,-8.22,-9.45,0
5.724,-8.96,-9.57,0
5.724,-9.32,-9.69,0
5.744,-9.57,-9.81,0
5.765,-9.69,-9.93,0
5.784,-9.81,-9.93,0
5.804,-9.93,-9.93,0
5.824,-9.93,-9.93,0
5.844,-9.93,-10.06,0
5.864,-10.06,-10.06,0
5.884,-10.06,-10.06,0
5.904,-10.06,-10.06,0
5.924,-10.06,-10.06,0
5.944,-10.06,-10.06,0
5.964,-10.18,-10.06,0
5.984,-10.18,-10.06,0
6.004,-10.18,-10.06,0
6.024,-10.18,-10.06,0
6.044,-10.06,-10.06,0
6.065,-10.18,-10.18,0
6.084,-10.18,-10.18,0
6.104,-10.18,-10.18,0
6.124,-10.18,-10.18,0
6.144,-10.18,-10.18,0
6.165,-10.18,-10.18,0
6.184,-10.18,-10.18,0
6.204,-10.06,-10.18,0
6.225,-10.18,-10.18,0
6.245,-10.18,-10.18,0
6.264,-10.18,-10.18,0
6.285,-10.3,-10.18,0
6.304,-10.3,-10.18,1
6.324,-10.3,-10.18,1
6.345,-10.18,-10.18,1
6.365,-10.18,-10.18,1
6.385,-10.18,-10.18,1
6.404,-10.18,-10.18,1
6.425,-10.3,-10.18,1
6.444,-10.3,-10.18,1
6.465,-10.18,-10.18,1
6.485,-10.3,-10.18,1
6.505,-10.3,-10.18,1
6.526,-10.3,-10.18,1
6.546,-10.3,-10.3,1
6.566,-10.3,-10.3,1
6.587,-10.3,-10.3,1
6.607,-10.06,-9.93,1
6.626,-9.45,-9.45,1
6.646,-8.96,-8.71,1
6.667,-8.47,-7.86,1
6.686,-7.98,-7.12,1
6.706,-7.25,-6.63,1
6.727,-6.51,-6.39,1
6.746,-6.02,-6.15,1
6.766,-5.54,-5.9,1
6.787,-5.17,-5.78,1
6.806,-4.92,-5.66,1
6.826,-4.8,-5.41,1
6.846,-4.8,-5.41,1
6.866,-4.68,-5.29,1
6.887,-4.44,-5.17,1
6.906,-4.56,-5.17,1
6.927,-4.44,-5.17,1
6.927,-4.19,-5.17,1
6.948,-4.07,-5.05,0
6.967,-4.07,-5.05,0
6.987,-4.07,-5.05,0
7.007,-4.07,-5.05,0
7.027,-4.07,-4.92,0
7.048,-4.07,-4.92,0
7.068,-4.07,-4.92,0
7.088,-3.82,-4.92,0
7.107,-3.82,-4.92,0
7.127,-3.95,-4.8,0
7.147,-3.95,-4.8,0
7.167,-4.07,-4.92,0
7.188,-3.95,-4.92,0
7.207,-4.07,-4.92,0
7.227,-3.95,-4.92,0
7.247,-3.7,-4.92,0
7.267,-3.7,-4.92,0
7.287,-3.82,-4.92,0
7.307,-3.82,-4.8,0
7.327,-3.82,-4.8,0
7.348,-3.82,-4.8,0
7.367,-3.82,-4.8,0
7.387,-3.82,-4.8,0
7.408,-3.7,-4.8,0
7.427,-3.82,-4.8,0
7.447,-3.95,-4.92,0
7.467,-3.95,-4.92,0
7.489,-3.95,-4.92,0
7.507,-3.82,-4.8,0
7.527,-3.7,-4.8,0
7.548,-3.7,-4.8,0
7.568,-3.7,-4.68,0
7.587,-3.7,-4.68,0
7.607,-3.7,-4.68,0
7.628,-3.7,-4.56,0
7.647,-3.7,-4.68,0
7.667,-3.82,-4.68,0
7.688,-4.8,-5.66,0
7.708,-5.9,-6.51,0
7.728,-6.51,-7.25,0
7.749,-7,-8.47,0
7.768,-7.61,-9.2,0
7.788,-8.59,-9.45,0
7.808,-9.08,-9.57,0
7.829,-9.45,-9.81,0
7.848,-9.57,-9.81,0
7.869,-9.69,-9.93,0
7.889,-9.81,-9.93,0
7.909,-9.93,-10.06,0
7.928,-10.06,-10.06,0
7.948,-10.06,-10.06,0
7.968,-10.06,-10.18,0
7.988,-10.18,-10.18,0
8.009,-10.06,-10.18,0
8.029,-10.06,-10.18,0
8.048,-10.18,-10.18,0
8.069,-10.18,-10.18,0
8.088,-10.3,-10.18,0
8.108,-10.3,-10.18,0
8.129,-10.18,-10.18,0
8.149,-10.18,-10.18,0
8.169,-10.18,-10.18,0
8.189,-10.18,-10.18,0
8.21,-10.18,-10.18,0
8.229,-10.18,-10.3,0
8.25,-10.18,-10.18,0
8.27,-10.18,-10.18,0
8.289,-10.18,-10.18,0
8.309,-10.18,-10.18,0
8.33,-10.18,-10.18,0
8.349,-10.3,-10.18,0
8.369,-10.3,-10.18,0
8.39,-10.3,-10.18,1
8.41,-10.3,-10.18,1
8.43,-10.18,-10.18,1
8.449,-10.18,-10.3,1
8.469,-10.18,-10.18,1
8.489,-10.18,-10.3,1
8.509,-10.3,-10.3,1
8.529,-10.3,-10.18,1
8.529,-10.3,-10.18,1
8.55,-10.3,-10.18,1
8.57,-10.3,-10.3,1
8.59,-10.3,-10.3,1
8.61,-10.3,-10.18,1
8.629,-10.3,-10.3,1
8.649,-10.3,-10.3,1
8.669,-10.3,-10.3,1
8.689,-9.81,-9.69,1
8.709,-9.2,-9.2,1
8.729,-8.59,-8.47,1
8.749,-8.22,-7.49,1
8.769,-7.73,-6.88,1
8.789,-6.88,-6.51,1
8.809,-6.27,-6.27,1
8.83,-5.78,-6.02,1
8.849,-5.29,-5.78,1
8.869,-4.92,-5.66,1
8.89,-4.8,-5.54,1
8.909,-4.68,-5.41,1
8.93,-4.68,-5.41,1
8.951,-4.56,-5.29,1
8.971,-4.56,-5.17,1
8.991,-4.44,-5.17,1
9.011,-4.31,-5.17,1
9.03,-4.07,-5.05,1
9.051,-4.07,-5.05,0
9.071,-4.07,-5.05,0
9.097,-4.07,-5.05,0
9.11,-4.07,-5.05,0
9.13,-4.07,-4.92,0
9.15,-3.95,-4.92,0
9.171,-3.95,-4.92,0
9.191,-3.82,-4.8,0
9.211,-3.95,-4.8,0
9.23,-3.95,-4.8,0
9.251,-3.95,-4.8,0
9.272,-4.07,-4.8,0
9.29,-4.07,-4.8,0
9.31,-4.07,-4.92,0
9.331,-3.82,-4.92,0
9.331,-3.7,-4.92,0
9.352,-3.82,-4.8,0
9.372,-3.95,-4.8,0
9.392,-3.82,-4.68,0
9.412,-3.95,-4.68,0
9.431,-3.82,-4.68,0
9.451,-3.95,-4.68,0
9.471,-3.82,-4.68,0
9.492,-3.82,-4.8,0
9.512,-3.82,-4.8,0
9.531,-3.95,-4.8,0
9.551,-3.82,-4.8,0
9.572,-3.95,-4.8,0
9.592,-3.82,-4.8,0
9.612,-3.7,-4.8,0
9.632,-3.7,-4.68,0
9.652,-3.58,-4.68,0
9.671,-3.58,-4.68,0
9.691,-3.7,-4.68,0
9.712,-3.7,-4.68,0
9.731,-3.82,-4.8,0
9.731,-4.92,-5.78,0
9.752,-6.02,-6.76,0
9.772,-6.63,-7.61,0
9.792,-7,-8.83,0
9.813,-7.86,-9.32,0
9.832,-8.71,-9.57,0
9.852,-9.2,-9.81,0
9.872,-9.57,-9.81,0
9.892,-9.57,-9.93,0
9.912,-9.69,-10.06,0
9.932,-9.81,-9.93,0
9.952,-9.93,-10.06,0
9.972,-10.06,-10.06,0
9.992,-10.06,-10.06,0
10.012,-10.06,-10.18,0
10.032,-10.06,-10.18,0
10.052,-10.06,-10.18,0
10.072,-10.18,-10.18,0
10.092,-10.18,-10.18,0
10.112,-10.18,-10.18,0
10.132,-10.3,-10.18,0
10.153,-10.3,-10.18,0
10.172,-10.18,-10.18,0
10.192,-10.3,-10.18,0
10.213,-10.3,-10.18,0
10.233,-10.18,-10.18,0
10.253,-10.3,-10.18,0
10.273,-10.3,-10.3,0
10.293,-10.18,-10.18,0
10.313,-10.18,-10.18,0
10.333,-10.18,-10.3,0
10.353,-10.3,-10.18,0
10.373,-10.3,-10.3,0
10.393,-10.3,-10.3,0
10.413,-10.3,-10.18,1
10.432,-10.3,-10.3,1
10.453,-10.18,-10.3,1
10.473,-10.18,-10.18,1
10.493,-10.18,-10.18,1
10.513,-10.18,-10.3,1
10.532,-10.3,-10.3,1
10.532,-10.3,-10.3,1
10.553,-10.3,-10.3,1
10.573,-10.3,-10.3,1
10.593,-10.3,-10.3,1
10.613,-10.3,-10.3,1
10.633,-10.42,-10.3,1
10.653,-10.42,-10.3,1
10.673,-10.18,-10.18,1
10.693,-9.45,-9.57,1
10.713,-8.96,-8.83,1
10.733,-8.47,-7.98,1
10.753,-7.98,-7.12,1
10.773,-7.12,-6.63,1
10.792,-6.51,-6.27,1
10.813,-5.9,-6.02,1
10.833,-5.29,-5.78,1
10.853,-5.05,-5.66,1
10.873,-4.92,-5.54,1
10.892,-4.8,-5.41,1
10.912,-4.68,-5.29,1
10.933,-4.56,-5.17,1
10.933,-4.56,-5.17,1
10.953,-4.44,-5.05,1
10.973,-4.19,-5.05,1
10.994,-4.07,-5.05,1
11.014,-4.07,-5.05,0
11.033,-4.07,-5.05,0
11.053,-4.07,-5.05,0
11.074,-4.19,-5.05,0
11.094,-4.07,-4.92,0
11.113,-3.95,-4.92,0
11.134,-3.82,-4.92,0
11.153,-3.95,-4.8,0
11.173,-3.95,-4.8,0
11.193,-3.95,-4.8,0
11.213,-4.07,-4.8,0
11.233,-4.07,-4.8,0
11.254,-3.95,-4.92,0
11.274,-3.82,-4.92,0
11.293,-3.7,-4.92,0
11.313,-3.82,-4.8,0
11.333,-3.95,-4.8,0
11.354,-3.95,-4.68,0
11.373,-3.95,-4.8,0
11.394,-3.95,-4.68,0
11.414,-3.82,-4.68,0
11.434,-3.82,-4.68,0
11.454,-3.82,-4.68,0
11.474,-3.82,-4.8,0
11.494,-3.95,-4.8,0
11.514,-3.82,-4.8,0
11.534,-3.82,-4.8,0
11.554,-3.82,-4.68,0
11.574,-3.82,-4.68,0
11.594,-3.58,-4.68,0
11.614,-3.58,-4.56,0
11.634,-3.58,-4.56,0
11.654,-3.58,-4.56,0
11.674,-3.7,-4.56,0
11.694,-4.07,-5.05,0
11.714,-5.41,-6.15,0
11.734,-6.27,-6.88,0
11.755,-6.76,-8.1,0
11.774,-7.25,-8.96,0
11.794,-8.22,-9.45,0
11.814,-9.08,-9.57,0
11.835,-9.45,-9.81,0
11.855,-9.57,-9.93,0
11.875,-9.69,-9.93,0
11.895,-9.81,-9.93,0
11.915,-9.93,-10.06,0
11.934,-10.06,-10.06,0
11.954,-10.06,-10.06,0
11.975,-10.18,-10.06,0
11.994,-10.06,-10.18,0
12.014,-10.06,-10.18,0
12.035,-10.18,-10.18,0
12.054,-10.18,-10.18,0
12.074,-10.3,-10.18,0
12.095,-10.3,-10.18,0
12.114,-10.3,-10.18,0
12.135,-10.18,-10.18,0
12.135,-10.18,-10.18,0
12.155,-10.18,-10.18,0
12.175,-10.3,-10.18,0
12.195,-10.3,-10.18,0
12.215,-10.18,-10.18,0
12.235,-10.18,-10.18,0
12.255,-10.18,-10.18,0
12.276,-10.18,-10.18,0
12.296,-10.18,-10.18,0
12.315,-10.18,-10.18,0
12.335,-10.3,-10.18,0
12.355,-10.3,-10.18,1
12.375,-10.3,-10.3,1
12.395,-10.18,-10.18,1
12.415,-10.18,-10.18,1
12.435,-10.18,-10.18,1
12.455,-10.18,-10.3,1
12.475,-10.3,-10.3,1
12.495,-10.18,-10.3,1
12.516,-10.3,-10.3,1
12.535,-10.3,-10.3,1
12.555,-10.3,-10.3,1
12.575,-10.3,-10.3,1
12.595,-10.3,-10.3,1
12.615,-10.3,-10.3,1
12.635,-10.3,-10.3,1
12.655,-9.93,-9.93,1
12.675,-9.32,-9.32,1
12.696,-8.83,-8.59,1
12.716,-8.35,-7.61,1
12.735,-7.73,-7,1
12.755,-7,-6.51,1
12.775,-6.27,-6.15,1
12.795,-5.66,-6.02,1
12.815,-5.17,-5.78,1
12.836,-4.92,-5.66,1
12.855,-4.92,-5.54,1
12.875,-4.8,-5.41,1
12.895,-4.68,-5.29,1
12.915,-4.68,-5.17,1
12.935,-4.56,-5.17,1
12.935,-4.44,-5.17,1
12.955,-4.07,-5.05,1
12.975,-4.07,-5.05,0
12.996,-4.07,-5.05,0
13.017,-4.07,-5.05,0
13.036,-4.07,-4.92,0
13.056,-4.19,-4.92,0
13.076,-4.07,-4.92,0
13.096,-3.82,-4.8,0
13.116,-3.82,-4.8,0
13.136,-3.82,-4.8,0
13.156,-3.95,-4.8,0
13.176,-3.95,-4.8,0
13.196,-3.95,-4.8,0
13.216,-4.07,-4.8,0
13.236,-4.07,-4.8,0
13.256,-3.7,-4.8,0
13.276,-3.7,-4.8,0
13.296,-3.82,-4.8,0
13.316,-3.82,-4.8,0
13.336,-3.82,-4.8,0
13.357,-3.95,-4.8,0
13.376,-3.95,-4.68,0
13.397,-3.82,-4.68,0
13.417,-3.82,-4.8,0
13.437,-3.82,-4.8,0
13.456,-3.82,-4.8,0
13.477,-3.95,-4.92,0
13.497,-3.82,-4.92,0
13.517,-3.95,-4.8,0
13.537,-3.82,-4.8,0
13.557,-3.82,-4.68,0
13.576,-3.7,-4.68,0
13.596,-3.7,-4.68,0
13.616,-3.58,-4.56,0
13.636,-3.7,-4.56,0
13.656,-3.82,-4.56,0
13.677,-4.56,-5.41,0
13.697,-5.78,-6.39,0
13.716,-6.51,-7.12,0
13.737,-7,-8.47,0
13.737,-7.49,-9.08,0
13.758,-8.59,-9.45,0
13.778,-9.2,-9.69,0
13.798,-9.45,-9.81,0
13.818,-9.69,-9.93,0
13.838,-9.81,-9.93,0
13.859,-9.81,-9.93,0
13.878,-10.06,-9.93,0
13.898,-10.06,-10.06,0
13.918,-10.06,-10.06,0
13.938,-10.06,-10.18,0
13.958,-10.06,-10.18,0
13.978,-10.06,-10.18,0
13.998,-10.18,-10.18,0
14.018,-10.3,-10.18,0
14.038,-10.3,-10.18,0
14.058,-10.3,-10.06,0
14.078,-10.3,-10.18,0
14.098,-10.18,-10.18,0
14.117,-10.18,-10.18,0
14.137,-10.18,-10.18,0
14.158,-10.18,-10.18,0
14.178,-10.18,-10.3,0
14.198,-10.3,-10.3,0
14.218,-10.18,-10.18,0
14.238,-10.18,-10.3,0
14.258,-10.18,-10.3,0
14.278,-10.18,-10.18,0
14.298,-10.18,-10.18,0
14.318,-10.3,-10.18,0
14.338,-10.3,-10.18,1
14.358,-10.3,-10.3,1
14.378,-10.3,-10.3,1
14.398,-10.18,-10.18,1
14.418,-10.18,-10.3,1
14.438,-10.18,-10.3,1
14.458,-10.3,-10.18,1
14.478,-10.3,-10.3,1
14.498,-10.3,-10.3,1
14.518,-10.3,-10.3,1
14.537,-10.3,-10.3,1
14.558,-10.3,-10.3,1
14.578,-10.42,-10.3,1
14.598,-10.3,-10.3,1
14.619,-10.3,-10.3,1
14.638,-9.81,-9.69,1
14.658,-9.08,-9.08,1
14.678,-8.59,-8.35,1
14.698,-8.22,-7.49,1
14.718,-7.49,-6.76,1
14.738,-6.76,-6.39,1
14.758,-6.15,-6.15,1
14.778,-5.54,-5.9,1
14.798,-5.17,-5.78,1
14.818,-4.92,-5.66,1
14.839,-4.8,-5.41,1
14.858,-4.68,-5.41,1
14.878,-4.56,-5.29,1
14.898,-4.68,-5.17,1
14.918,-4.56,-5.17,1
14.938,-4.31,-5.05,1
14.938,-4.07,-5.05,1
14.958,-4.07,-5.05,0
14.978,-4.07,-5.05,0
14.998,-3.95,-5.05,0
15.018,-4.07,-4.92,0
15.039,-4.07,-4.92,0
15.059,-4.07,-4.8,0
15.078,-3.95,-4.8,0
15.098,-3.82,-4.8,0
15.118,-3.95,-4.8,0
15.138,-3.95,-4.8,0
15.158,-3.95,-4.8,0
15.178,-4.07,-4.8,0
15.198,-4.19,-4.8,0
15.218,-4.07,-4.8,0
15.238,-3.7,-4.8,0
15.259,-3.82,-4.8,0
15.279,-3.82,-4.8,0
15.298,-3.95,-4.68,0
15.318,-3.95,-4.68,0
15.339,-4.07,-4.68,0
15.339,-4.07,-4.68,0
15.359,-3.95,-4.68,0
15.379,-3.82,-4.68,0
15.399,-3.82,-4.68,0
15.419,-3.82,-4.68,0
15.447,-3.95,-4.8,0
15.459,-3.82,-4.8,0
15.479,-3.82,-4.68,0
15.5,-3.95,-4.68,0
15.519,-3.7,-4.68,0
15.539,-3.7,-4.56,0
15.559,-3.7,-4.56,0
15.579,-3.7,-4.68,0
15.599,-3.7,-4.56,0
15.619,-3.82,-4.68,0
15.639,-4.92,-5.78,0
15.659,-6.02,-6.63,0
15.68,-6.63,-7.61,0
15.699,-7,-8.83,0
15.719,-7.86,-9.32,0
15.739,-8.71,-9.57,0
15.739,-9.32,-9.81,0
15.759,-9.57,-9.93,0
15.78,-9.57,-9.93,0
15.799,-9.81,-10.06,0
15.821,-9.93,-10.06,0
15.84,-9.93,-10.06,0
15.86,-10.06,-10.06,0
15.88,-10.06,-10.18,0
15.9,-10.06,-10.18,0
15.92,-10.06,-10.18,0
15.94,-10.06,-10.18,0
15.959,-10.18,-10.18,0
15.98,-10.3,-10.18,0
16,-10.3,-10.18,0
16.019,-10.18,-10.18,0
16.04,-10.18,-10.18,0
16.06,-10.18,-10.18,0
16.079,-10.18,-10.18,0
16.1,-10.18,-10.18,0
16.119,-10.18,-10.18,0
16.14,-10.3,-10.18,0
16.16,-10.18,-10.18,0
16.18,-10.18,-10.3,0
16.2,-10.18,-10.18,0
16.22,-10.18,-10.18,0
16.24,-10.18,-10.18,0
16.26,-10.3,-10.18,0
16.28,-10.3,-10.18,0
16.3,-10.3,-10.3,1
16.321,-10.3,-10.3,1
16.34,-10.18,-10.3,1
16.36,-10.18,-10.3,1
16.38,-10.18,-10.3,1
16.4,-10.3,-10.3,1
16.42,-10.3,-10.3,1
16.44,-10.3,-10.3,1
16.46,-10.3,-10.3,1
16.48,-10.3,-10.3,1
16.5,-10.3,-10.3,1
16.52,-10.3,-10.3,1
16.54,-10.3,-10.3,1
16.561,-10.3,-10.3,1
16.58,-10.18,-10.18,1
16.601,-9.45,-9.57,1
16.621,-8.96,-8.83,1
16.641,-8.47,-7.98,1
16.66,-7.98,-7.25,1
16.68,-7.12,-6.63,1
16.7,-6.51,-6.27,1
16.721,-6.02,-6.02,1
16.742,-5.29,-5.78,1
16.761,-5.05,-5.66,1
16.78,-4.92,-5.54,1
16.801,-4.68,-5.41,1
16.82,-4.68,-5.29,1
16.841,-4.68,-5.17,1
16.862,-4.68,-5.17,1
16.881,-4.56,-5.05,1
16.9,-4.19,-5.05,1
16.92,-4.07,-5.05,1
16.941,-4.07,-5.05,0
16.962,-4.07,-5.05,0
16.981,-4.07,-5.05,0
17.002,-4.19,-4.92,0
17.022,-4.19,-4.92,0
17.041,-4.07,-4.8,0
17.062,-3.82,-4.8,0
17.081,-3.95,-4.8,0
17.102,-3.95,-4.8,0
17.122,-3.95,-4.8,0
17.141,-3.95,-4.8,0
17.161,-4.19,-4.8,0
17.181,-4.19,-4.8,0
17.201,-3.82,-4.8,0
17.222,-3.7,-4.8,0
17.241,-3.82,-4.8,0
17.262,-3.82,-4.8,0
17.281,-3.95,-4.68,0
17.302,-3.95,-4.68,0
17.321,-4.07,-4.68,0
17.341,-3.95,-4.68,0
17.341,-3.82,-4.68,0
17.363,-3.82,-4.68,0
17.381,-3.82,-4.8,0
17.402,-3.82,-4.8,0
17.422,-3.95,-4.68,0
17.442,-3.82,-4.8,0
17.461,-3.82,-4.68,0
17.481,-3.82,-4.68,0
17.502,-3.58,-4.68,0
17.522,-3.7,-4.56,0
17.541,-3.58,-4.56,0
17.562,-3.7,-4.56,0
17.581,-3.7,-4.56,0
17.602,-4.19,-5.05,0
17.622,-5.41,-6.15,0
17.642,-6.27,-6.88,0
17.661,-6.76,-8.22,0
17.681,-7.25,-9.08,0
17.701,-8.22,-9.45,0
17.722,-8.96,-9.69,0
17.742,-9.45,-9.81,0
17.742,-9.57,-9.93,0
17.763,-9.69,-9.93,0
17.783,-9.81,-10.06,0
17.803,-9.93,-10.06,0
17.823,-10.06,-10.06,0
17.842,-10.06,-10.18,0
17.863,-10.18,-10.18,0
17.883,-10.06,-10.18,0
17.903,-10.06,-10.18,0
17.923,-10.18,-10.18,0
17.943,-10.18,-10.18,0
17.962,-10.3,-10.18,0
17.982,-10.3,-10.18,0
18.003,-10.3,-10.18,0
18.022,-10.18,-10.18,0
18.043,-10.18,-10.18,0
18.063,-10.18,-10.18,0
18.082,-10.3,-10.18,0
18.102,-10.18,-10.18,0
18.123,-10.3,-10.18,0
18.143,-10.3,-10.18,0
18.143,-10.18,-10.18,0
18.164,-10.18,-10.18,0
18.183,-10.18,-10.18,0
18.203,-10.3,-10.18,0
18.224,-10.3,-10.18,0
18.244,-10.3,-10.3,1
18.264,-10.3,-10.3,1
18.283,-10.18,-10.18,1
18.304,-10.18,-10.3,1
18.324,-10.18,-10.3,1
18.343,-10.18,-10.18,1
18.364,-10.3,-10.3,1
18.384,-10.3,-10.3,1
18.404,-10.3,-10.3,1
18.423,-10.3,-10.3,1
18.444,-10.3,-10.3,1
18.464,-10.3,-10.3,1
18.483,-10.3,-10.3,1
18.503,-10.3,-10.3,1
18.523,-10.3,-10.3,1
18.544,-9.93,-9.81,1
18.544,-9.32,-9.32,1
18.565,-8.71,-8.59,1
18.585,-8.22,-7.61,1
18.604,-7.73,-6.88,1
18.631,-6.88,-6.51,1
18.644,-6.27,-6.15,1
18.664,-5.66,-5.9,1
18.684,-5.17,-5.78,1
18.704,-4.92,-5.66,1
18.724,-4.8,-5.54,1
18.744,-4.8,-5.41,1
18.765,-4.68,-5.29,1
18.784,-4.68,-5.17,1
18.804,-4.68,-5.17,1
18.824,-4.44,-5.05,1
18.844,-4.19,-5.05,1
18.865,-4.07,-5.05,0
18.884,-4.07,-5.05,0
18.904,-4.19,-5.05,0
18.925,-4.07,-5.05,0
18.945,-4.19,-4.92,0
18.965,-4.19,-4.92,0
18.985,-3.95,-4.8,0
19.005,-3.95,-4.8,0
19.025,-3.95,-4.8,0
19.045,-3.95,-4.8,0
19.065,-4.07,-4.8,0
19.086,-4.07,-4.8,0
19.105,-4.19,-4.8,0
19.126,-4.07,-4.92,0
19.145,-3.82,-4.8,0
19.166,-3.82,-4.8,0
19.185,-3.82,-4.8,0
19.206,-3.82,-4.8,0
19.226,-3.95,-4.8,0
19.245,-3.95,-4.68,0
19.265,-4.07,-4.68,0
19.286,-3.95,-4.8,0
19.305,-3.82,-4.68,0
19.325,-3.82,-4.8,0
19.345,-3.82,-4.8,0
19.345,-3.95,-4.92,0
19.366,-3.95,-4.92,0
19.386,-3.82,-4.8,0
19.406,-3.82,-4.8,0
19.426,-3.7,-4.68,0
19.446,-3.7,-4.68,0
19.466,-3.7,-4.68,0
19.486,-3.7,-4.68,0
19.506,-3.7,-4.68,0
19.526,-3.82,-4.68,0
19.546,-4.68,-5.54,0
19.566,-5.9,-6.51,0
19.586,-6.63,-7.25,0
19.605,-7,-8.59,0
19.626,-7.61,-9.2,0
19.646,-8.59,-9.57,0
19.666,-9.2,-9.69,0
19.685,-9.57,-9.81,0
19.706,-9.69,-9.81,0
19.725,-9.81,-9.93,0
19.746,-9.93,-9.93,0
19.766,-10.06,-10.06,0
19.787,-10.06,-10.06,0
19.806,-10.06,-10.06,0
19.826,-10.18,-10.06,0
19.847,-10.06,-10.06,0
19.866,-10.06,-10.06,0
19.886,-10.18,-10.06,0
19.906,-10.3,-10.06,0
19.927,-10.3,-10.06,0
19.946,-10.3,-10.06,0
19.967,-10.18,-10.18,0
19.986,-10.18,-10.18,0
20.006,-10.18,-10.18,0
20.026,-10.18,-10.18,0
20.046,-10.18,-10.18,0
20.067,-10.18,-10.18,0
20.086,-10.18,-10.18,0
20.107,-10.18,-10.18,0
20.127,-10.18,-10.18,0
20.147,-10.18,-10.18,0
20.168,-10.18,-10.18,0
20.188,-10.3,-10.3,0
20.208,-10.3,-10.18,0
20.228,-10.3,-10.18,1
20.247,-10.3,-10.18,1
20.268,-10.18,-10.18,1
20.287,-10.18,-10.18,1
20.307,-10.06,-10.18,1
20.328,-10.18,-10.18,1
20.347,-10.3,-10.3,1
20.368,-10.3,-10.18,1
20.388,-10.3,-10.18,1
20.408,-10.3,-10.3,1
20.427,-10.3,-10.3,1
20.447,-10.3,-10.3,1
20.467,-10.42,-10.3,1
20.487,-10.42,-10.18,1
20.507,-10.3,-10.3,1
20.527,-9.69,-9.57,1
20.547,-9.08,-9.08,1
20.567,-8.59,-8.22,1
20.588,-8.1,-7.37,1
20.607,-7.37,-6.76,1
20.628,-6.63,-6.39,1
20.648,-6.15,-6.15,1
20.667,-5.66,-5.9,1
20.687,-5.17,-5.78,1
20.707,-4.92,-5.54,1
20.727,-4.8,-5.41,1
20.747,-4.68,-5.41,1
20.768,-4.68,-5.29,1
20.787,-4.68,-5.17,1
20.807,-4.68,-5.17,1
20.828,-4.44,-5.17,1
20.848,-4.19,-5.05,1
20.868,-4.07,-5.05,0
20.887,-3.95,-5.05,0
20.907,-4.07,-5.05,0
20.927,-4.07,-5.05,0
20.948,-4.19,-5.05,0
20.969,-4.19,-4.92,0
20.989,-3.95,-4.92,0
21.009,-3.95,-4.8,0
21.029,-3.95,-4.8,0
21.049,-3.95,-4.92,0
21.068,-4.07,-4.8,0
21.089,-3.95,-4.8,0
21.109,-4.19,-4.92,0
21.128,-4.07,-4.8,0
21.148,-3.7,-4.8,0
21.169,-3.82,-4.8,0
21.189,-3.82,-4.8,0
21.208,-3.95,-4.8,0
21.228,-3.82,-4.68,0
21.248,-3.95,-4.68,0
21.27,-4.07,-4.68,0
21.289,-3.95,-4.68,0
21.309,-3.82,-4.8,0
21.328,-3.82,-4.68,0
21.349,-3.95,-4.8,0
21.369,-3.95,-4.8,0
21.389,-3.95,-4.8,0
21.409,-3.95,-4.8,0
21.429,-4.07,-4.68,0
21.449,-3.82,-4.68,0
21.469,-3.7,-4.68,0
21.489,-3.7,-4.68,0
21.509,-3.7,-4.68,0
21.529,-3.82,-4.68,0
21.55,-3.95,-4.8,0
21.569,-5.17,-5.9,0
21.59,-6.15,-6.76,0
21.609,-6.76,-7.86,0
21.63,-7.12,-8.83,0
21.65,-7.98,-9.45,0
21.669,-8.96,-9.57,0
21.689,-9.32,-9.81,0
21.709,-9.57,-9.93,0
21.729,-9.57,-9.93,0
21.749,-9.81,-9.93,0
21.769,-10.06,-10.06,0
21.79,-10.06,-10.06,0
21.81,-10.06,-10.06,0
21.829,-10.06,-10.06,0
21.85,-10.06,-10.18,0
21.87,-10.06,-10.18,0
21.89,-10.06,-10.18,0
21.909,-10.3,-10.18,0
21.929,-10.3,-10.18,0
21.949,-10.3,-10.18,0
21.969,-10.18,-10.18,0
21.99,-10.18,-10.06,0
22.009,-10.18,-10.18,0
22.03,-10.18,-10.18,0
22.049,-10.18,-10.18,0
22.069,-10.18,-10.18,0
22.089,-10.18,-10.18,0
22.109,-10.06,-10.18,0
22.13,-10.18,-10.18,0
22.15,-10.18,-10.18,0
22.17,-10.18,-10.18,0
22.19,-10.3,-10.18,0
22.21,-10.3,-10.18,0
22.23,-10.3,-10.18,0
22.251,-10.3,-10.18,1
22.27,-10.3,-10.18,1
22.29,-10.18,-10.18,1
22.311,-10.18,-10.18,1
22.33,-10.18,-10.18,1
22.35,-10.3,-10.18,1
22.37,-10.3,-10.18,1
22.39,-10.3,-10.3,1
22.41,-10.3,-10.3,1
22.43,-10.3,-10.3,1
22.451,-10.3,-10.3,1
22.471,-10.3,-10.3,1
22.491,-10.42,-10.3,1
22.51,-10.3,-10.3,1
22.53,-10.06,-10.06,1
22.55,-9.45,-9.45,1
22.57,-8.83,-8.71,1
22.59,-8.35,-7.86,1
22.611,-7.86,-7,1
22.63,-7,-6.51,1
22.651,-6.39,-6.27,1
22.67,-5.9,-6.02,1
22.69,-5.29,-5.9,1
22.711,-5.05,-5.66,1
22.73,-4.8,-5.54,1
22.75,-4.68,-5.41,1
22.771,-4.68,-5.29,1
22.791,-4.56,-5.17,1
22.811,-4.68,-5.17,1
22.831,-4.68,-5.05,1
22.851,-4.19,-5.05,1
22.879,-4.07,-5.05,0
22.89,-3.95,-5.05,0
22.91,-4.07,-5.05,0
22.93,-4.07,-5.05,0
22.951,-4.19,-5.05,0
22.971,-4.19,-5.05,0
22.991,-4.07,-4.92,0
23.011,-3.95,-4.92,0
23.031,-3.95,-4.92,0
23.051,-3.95,-4.8,0
23.072,-3.95,-4.92,0
23.091,-4.07,-4.92,0
23.111,-4.19,-4.92,0
23.131,-4.19,-4.92,0
23.152,-3.95,-4.92,0
23.171,-3.82,-4.92,0
23.191,-3.82,-4.92,0
23.211,-3.82,-4.8,0
23.231,-3.95,-4.8,0
23.251,-3.95,-4.8,0
23.271,-4.19,-4.8,0
23.291,-4.07,-4.8,0
23.311,-3.95,-4.8,0
23.331,-3.95,-4.8,0
23.351,-3.95,-4.92,0
23.351,-3.95,-4.8,0
23.371,-3.95,-4.8,0
23.391,-3.95,-4.8,0
23.411,-3.95,-4.68,0
23.432,-4.07,-4.68,0
23.451,-3.7,-4.68,0
23.472,-3.7,-4.56,0
23.491,-3.7,-4.56,0
23.511,-3.82,-4.68,0
23.531,-3.82,-4.68,0
23.551,-4.44,-5.29,0
23.571,-5.66,-6.27,0
23.591,-6.51,-7,0
23.612,-6.88,-8.35,0
23.631,-7.37,-9.08,0
23.651,-8.35,-9.45,0
23.672,-9.08,-9.69,0
23.691,-9.45,-9.81,0
23.712,-9.57,-9.81,0
23.731,-9.69,-9.93,0
23.751,-9.93,-9.93,0
23.751,-9.93,-10.06,0
23.772,-10.06,-10.06,0
23.792,-10.06,-10.06,0
23.812,-10.06,-10.18,0
23.832,-9.93,-10.18,0
23.851,-9.93,-10.18,0
23.872,-10.06,-10.18,0
23.892,-10.3,-10.18,0
23.912,-10.3,-10.18,0
23.932,-10.3,-10.18,0
23.951,-10.18,-10.18,0
23.971,-10.18,-10.18,0
23.992,-10.18,-10.18,0
24.013,-10.18,-10.18,0
24.032,-10.3,-10.18,0
24.052,-10.18,-10.18,0
24.072,-10.3,-10.18,0
24.092,-10.3,-10.18,0
24.112,-10.18,-10.18,0
24.132,-10.18,-10.18,0
24.152,-10.18,-10.3,0
24.173,-10.3,-10.18,0
24.193,-10.3,-10.18,0
24.212,-10.3,-10.18,1
24.233,-10.3,-10.18,1
24.252,-10.3,-10.3,1
24.273,-10.18,-10.3,1
24.293,-10.18,-10.3,1
24.313,-10.18,-10.3,1
24.333,-10.18,-10.18,1
24.353,-10.3,-10.3,1
24.373,-10.3,-10.3,1
24.392,-10.3,-10.3,1
24.412,-10.3,-10.3,1
24.432,-10.3,-10.3,1
24.453,-10.3,-10.3,1
24.473,-10.3,-10.3,1
24.492,-10.3,-10.3,1
24.512,-9.93,-9.81,1
24.533,-9.32,-9.32,1
24.554,-8.71,-8.59,1
24.574,-8.35,-7.61,1
24.594,-7.73,-6.88,1
24.614,-6.88,-6.51,1
24.634,-6.27,-6.15,1
24.654,-5.78,-6.02,1
24.674,-5.17,-5.78,1
24.694,-4.92,-5.66,1
24.714,-4.8,-5.54,1
24.734,-4.68,-5.41,1
24.754,-4.68,-5.29,1
24.775,-4.68,-5.29,1
24.794,-4.68,-5.17,1
24.814,-4.56,-5.17,1
24.834,-4.19,-5.05,1
24.854,-4.07,-5.05,0
24.874,-4.07,-5.05,0
24.894,-4.07,-5.05,0
24.914,-4.07,-5.05,0
24.934,-4.31,-5.05,0
24.954,-4.19,-5.05,0
24.975,-4.07,-4.92,0
24.995,-3.95,-4.92,0
25.015,-3.95,-4.8,0
25.035,-4.07,-4.8,0
25.055,-4.07,-4.92,0
25.076,-4.07,-4.92,0
25.095,-4.19,-4.92,0
25.115,-4.19,-4.92,0
25.135,-3.95,-4.92,0
25.156,-3.82,-4.92,0
25.175,-3.82,-4.92,0
25.195,-3.95,-4.8,0
25.215,-3.95,-4.8,0
25.235,-4.07,-4.8,0
25.255,-4.19,-4.8,0
25.275,-4.07,-4.8,0
25.295,-3.95,-4.8,0
25.315,-3.95,-4.92,0
25.335,-3.95,-4.92,0
25.355,-3.95,-4.92,0
25.375,-4.07,-4.92,0
25.395,-3.95,-4.92,0
25.416,-3.95,-4.8,0
25.436,-3.95,-4.8,0
25.455,-3.7,-4.8,0
25.475,-3.7,-4.8,0
25.495,-3.7,-4.68,0
25.516,-3.7,-4.8,0
25.535,-3.82,-4.68,0
25.555,-4.68,-5.66,0
25.575,-5.78,-6.63,0
25.595,-6.51,-7.37,0
25.616,-7,-8.59,0
25.636,-7.61,-9.2,0
25.655,-8.59,-9.57,0
25.676,-9.2,-9.69,0
25.695,-9.45,-9.81,0
25.715,-9.69,-9.93,0
25.735,-9.81,-9.93,0
25.755,-9.93,-9.93,0
25.776,-10.06,-10.06,0
25.796,-10.06,-10.06,0
25.816,-10.06,-10.06,0
25.836,-10.06,-10.06,0
25.856,-9.93,-10.06,0
25.876,-10.06,-10.06,0
25.896,-10.18,-10.06,0
25.916,-10.3,-10.06,0
25.935,-10.3,-10.06,0
25.955,-10.18,-10.06,0
25.976,-10.3,-10.18,0
25.996,-10.06,-10.18,0
26.016,-10.18,-10.06,0
26.036,-10.3,-10.18,0
26.056,-10.3,-10.18,0
26.075,-10.18,-10.18,0
26.096,-10.18,-10.18,0
26.115,-10.18,-10.18,0
26.136,-10.18,-10.18,0
26.155,-10.18,-10.18,0
26.176,-10.18,-10.18,0
26.197,-10.3,-10.18,0
26.216,-10.3,-10.18,0
26.236,-10.3,-10.18,1
26.256,-10.3,-10.3,1
26.276,-10.18,-10.18,1
26.296,-10.18,-10.18,1
26.316,-10.18,-10.18,1
26.336,-10.3,-10.18,1
26.356,-10.3,-10.18,1
26.376,-10.3,-10.18,1
26.396,-10.3,-10.3,1
26.416,-10.3,-10.3,1
26.436,-10.3,-10.3,1
26.456,-10.3,-10.18,1
26.476,-10.3,-10.3,1
26.496,-10.3,-10.3,1
26.517,-10.3,-10.18,1
26.536,-9.69,-9.69,1
26.556,-9.08,-9.08,1
26.556,-8.59,-8.22,1
26.576,-8.22,-7.37,1
26.597,-7.49,-6.76,1
26.617,-6.63,-6.39,1
26.637,-6.15,-6.15,1
26.657,-5.66,-5.9,1
26.677,-5.17,-5.78,1
26.696,-4.92,-5.66,1
26.717,-4.8,-5.54,1
26.737,-4.68,-5.41,1
26.757,-4.68,-5.29,1
26.777,-4.68,-5.29,1
26.796,-4.68,-5.17,1
26.817,-4.44,-5.17,1
26.837,-4.19,-5.05,1
26.857,-4.07,-5.17,0
26.877,-4.07,-5.05,0
26.896,-4.07,-5.17,0
26.917,-4.19,-5.05,0
26.937,-4.31,-5.05,0
26.957,-4.19,-5.05,0
26.977,-4.07,-4.92,0
26.997,-4.07,-4.92,0
27.017,-4.07,-4.92,0
27.037,-4.07,-4.92,0
27.057,-4.07,-4.92,0
27.078,-4.07,-4.92,0
27.098,-4.19,-4.92,0
27.118,-4.19,-4.92,0
27.138,-3.82,-4.92,0
27.158,-3.82,-4.92,0
27.177,-3.82,-4.92,0
27.198,-3.82,-4.8,0
27.218,-3.95,-4.8,0
27.237,-4.07,-4.68,0
27.257,-4.07,-4.8,0
27.278,-4.07,-4.8,0
27.297,-3.95,-4.8,0
27.317,-3.95,-4.8,0
27.337,-3.95,-4.8,0
27.357,-3.82,-4.92,0
27.357,-3.82,-4.8,0
27.377,-3.82,-4.8,0
27.398,-3.95,-4.8,0
27.418,-3.82,-4.68,0
27.438,-3.7,-4.68,0
27.458,-3.7,-4.68,0
27.478,-3.7,-4.68,0
27.498,-3.7,-4.68,0
27.518,-3.95,-4.92,0
27.538,-5.17,-6.02,0
27.557,-6.15,-6.76,0
27.578,-6.76,-7.86,0
27.598,-7.12,-8.83,0
27.618,-7.98,-9.45,0
27.637,-8.83,-9.69,0
27.658,-9.32,-9.81,0
27.678,-9.57,-9.81,0
27.698,-9.69,-9.93,0
27.718,-9.93,-9.93,0
27.738,-9.93,-10.06,0
27.758,-10.06,-10.06,0
27.779,-10.18,-10.06,0
27.798,-10.06,-10.06,0
27.819,-10.18,-10.06,0
27.838,-10.06,-10.18,0
27.858,-10.06,-10.06,0
27.878,-10.3,-10.18,0
27.898,-10.3,-10.18,0
27.918,-10.3,-10.06,0
27.938,-10.3,-10.06,0
27.958,-10.18,-10.06,0
27.978,-10.18,-10.18,0
27.998,-10.18,-10.18,0
28.018,-10.3,-10.18,0
28.038,-10.3,-10.18,0
28.058,-10.3,-10.18,0
28.079,-10.3,-10.18,0
28.098,-10.18,-10.18,0
28.118,-10.18,-10.18,0
28.138,-10.18,-10.18,0
28.159,-10.3,-10.18,0
28.159,-10.3,-10.18,0
28.179,-10.3,-10.18,0
28.199,-10.3,-10.18,1
28.219,-10.18,-10.18,1
28.24,-10.06,-10.18,1
28.259,-10.18,-10.18,1
28.28,-10.18,-10.18,1
28.299,-10.3,-10.18,1
28.319,-10.3,-10.18,1
28.339,-10.3,-10.18,1
28.359,-10.3,-10.18,1
28.379,-10.3,-10.18,1
28.399,-10.3,-10.3,1
28.419,-10.3,-10.3,1
28.439,-10.3,-10.3,1
28.46,-10.42,-10.3,1
28.479,-10.06,-10.06,1
28.499,-9.45,-9.45,1
28.519,-8.83,-8.71,1
28.54,-8.47,-7.86,1
28.559,-7.86,-7.12,1
28.58,-7.12,-6.51,1
28.6,-6.39,-6.27,1
28.619,-6.02,-6.02,1
28.64,-5.41,-5.9,1
28.66,-5.05,-5.66,1
28.68,-4.92,-5.54,1
28.702,-4.8,-5.41,1
28.722,-4.68,-5.41,1
28.742,-4.68,-5.29,1
28.767,-4.68,-5.17,1
28.787,-4.56,-5.17,1
28.808,,,
28.82,-4.31,-5.17,1
28.84,-4.19,-5.05,1
28.86,-4.07,-5.17,0
28.88,-4.07,-5.17,0
28.9,-4.19,-5.17,0
28.92,-4.31,-5.05,0
28.94,,,
28.96,-4.19,-5.05,0
28.98,-4.19,-4.92,0
29,-3.95,-4.92,0
29.02,-3.95,-4.92,0
29.04,-3.95,-4.92,0
29.06,-3.95,-4.92,0
29.081,-4.07,-4.92,0
29.1,-4.19,-4.92,0
29.12,-4.19,-4.92,0
29.141,-3.95,-4.92,0
29.16,-3.82,-4.92,0
29.181,-3.95,-4.92,0
29.202,,,
29.221,-3.82,-4.92,0
29.24,-3.82,-4.92,0
29.26,-3.95,-4.8,0
29.28,-4.07,-4.92,0
29.3,-4.07,-4.8,0
29.32,-3.95,-4.8,0
29.34,-3.95,-4.92,0
29.36,-3.95,-4.92,0
29.381,-3.95,-4.92,0
29.4,,,
29.421,-3.95,-4.92,0
29.441,-3.95,-4.92,0
29.461,-3.95,-4.8,0
29.48,-3.95,-4.8,0
29.501,-3.82,-4.68,0
29.521,-3.82,-4.68,0
29.54,-3.7,-4.68,0
29.561,-3.82,-4.68,0
29.581,-3.95,-4.68,0
29.601,-4.44,-5.17,0
29.621,-5.66,-6.27,0
29.642,-6.51,-7,0
29.664,-6.88,-8.22,0
29.685,-7.49,-9.08,0
29.705,-8.35,-9.45,0
29.73,-9.08,-9.69,0
29.751,-9.45,-9.69,0
29.771,-9.57,-9.81,0
29.795,-9.81,-9.93,0
29.815,-9.93,-9.93,0
29.836,-10.06,-9.93,0
29.86,-10.06,-9.93,0
29.881,,,
29.891,-10.06,-10.06,0
29.911,-10.06,-10.06,0
29.931,-10.06,-10.06,0
29.955,-10.06,-10.18,0
29.98,-10.18,-10.18,0
30.004,-10.18,-10.18,0
30.029,-10.3,-10.18,0
30.049,,,
30.051,,,
30.071,-10.18,-10.06,0
30.091,-10.3,-10.18,0
30.111,-10.06,-10.18,0
30.131,-10.18,-10.18,0
30.152,-10.18,-10.18,0
30.173,-10.3,-10.18,0
30.193,,,
30.213,-10.18,-10.18,0
30.233,-10.18,-10.18,0
30.253,-10.18,-10.18,0
30.273,-10.18,-10.18,0
30.293,-10.06,-10.18,0
30.315,-10.18,-10.18,0
30.34,-10.3,-10.18,0
30.36,,,
30.373,-10.3,-10.18,0
30.393,-10.3,-10.18,1
30.413,-10.3,-10.18,1
30.434,-10.3,-10.18,1
30.459,-10.18,-10.18,1
30.483,-10.18,-10.18,1
30.503,,,
30.513,-10.18,-10.18,1
30.533,-10.18,-10.18,1
30.553,-10.3,-10.18,1
30.578,-10.3,-10.18,1
30.602,-10.3,-10.18,1
30.627,-10.18,-10.18,1
30.651,-10.3,-10.3,1
30.672,,,
30.678,-10.3,-10.3,1
30.698,,,
30.718,-10.3,-10.3,1
30.738,-10.3,-10.3,1
30.758,-9.93,-9.81,1
30.778,-9.32,-9.32,1
30.798,-8.71,-8.59,1
30.818,-8.35,-7.61,1
30.838,-7.73,-6.88,1
30.858,-6.88,-6.51,1
30.878,-6.27,-6.27,1
30.898,,,
30.918,-5.9,-6.02,1
30.938,-5.29,-5.78,1
30.958,-5.05,-5.66,1
30.978,-4.8,-5.54,1
30.987,-4.68,-5.41,1
31.008,-4.68,-5.29,1
31.028,,,
31.048,-4.68,-5.29,1
31.068,-4.68,-5.17,1
31.088,-4.56,-5.17,1
31.107,-4.19,-5.17,1
31.128,-4.19,-5.05,0
31.148,-4.07,-5.17,0
31.168,-4.07,-5.05,0
31.188,-4.07,-5.05,0
31.208,-4.19,-5.05,0
31.228,,,
31.248,-4.19,-4.92,0
31.268,-4.07,-4.92,0
31.287,-3.95,-4.92,0
31.308,-3.95,-4.92,0
31.328,-3.95,-4.8,0
31.348,-3.95,-4.8,0
31.367,-4.07,-4.92,0
31.388,-4.19,-4.92,0
31.401,-4.19,-4.92,0
31.425,-3.95,-4.92,0
31.445,-3.82,-4.92,0
31.465,-3.82,-4.8,0
31.491,-3.95,-4.8,0
31.512,-3.95,-4.8,0
31.532,-4.07,-4.8,0
31.557,-4.07,-4.8,0
31.576,-4.19,-4.68,0
31.597,-3.95,-4.8,0
31.622,-3.95,-4.8,0
31.642,-3.95,-4.92,0
31.663,,,
31.663,,,
31.683,-3.95,-4.92,0
31.702,-3.95,-4.92,0
31.722,-3.95,-4.92,0
31.741,-3.95,-4.8,0
31.762,-3.95,-4.68,0
31.782,-3.82,-4.68,0
31.802,-3.82,-4.68,0
31.823,-3.7,-4.68,0
31.843,-3.82,-4.68,0
31.863,,,
31.883,-3.82,-4.8,0
31.903,-4.8,-5.54,0
31.923,-5.9,-6.51,0
31.943,-6.63,-7.37,0
31.963,-7,-8.59,0
31.983,-7.61,-9.2,0
32.003,-8.59,-9.57,0
32.023,-9.2,-9.69,0
32.043,-9.45,-9.81,0
32.063,-9.69,-9.93,0
32.083,-9.81,-9.93,0
32.103,-9.93,-10.06,0
32.125,-9.93,-10.06,0
32.146,-10.06,-10.06,0
32.171,-10.06,-10.06,0
32.195,-10.06,-10.06,0
32.221,-9.93,-10.18,0
32.242,,,
32.261,-10.06,-10.18,0
32.281,-10.18,-10.18,0
32.301,-10.18,-10.06,0
32.321,-10.3,-10.06,0
32.341,-10.18,-10.18,0
32.364,-10.18,-10.06,0
32.384,,,
32.401,-10.18,-10.06,0
32.422,-10.18,-10.18,0
32.441,-10.18,-10.06,0
32.461,-10.18,-10.18,0
32.482,-10.3,-10.18,0
32.507,-10.18,-10.18,0
32.531,-10.18,-10.18,0
32.552,,,
32.561,-10.18,-10.18,0
32.581,-10.18,-10.18,0
32.601,-10.18,-10.18,0
32.625,-10.3,-10.18,0
32.651,-10.3,-10.18,0
32.674,-10.3,-10.18,1
32.699,-10.3,-10.18,1
32.719,,,
32.725,-10.3,-10.3,1
32.746,-10.18,-10.18,1
32.769,-10.18,-10.18,1
32.793,-10.18,-10.18,1
32.818,-10.3,-10.18,1
32.842,-10.3,-10.18,1
32.863,,,
32.866,,,
32.885,-10.3,-10.18,1
32.906,-10.3,-10.3,1
32.926,-10.3,-10.3,1
32.945,-10.3,-10.3,1
32.966,-10.3,-10.3,1
32.986,-10.3,-10.3,1
33.01,-10.3,-10.18,1
33.031,,,
33.051,-9.69,-9.69,1
33.071,-9.08,-9.08,1
33.091,-8.59,-8.35,1
33.111,-8.1,-7.37,1
33.132,-7.49,-6.76,1
33.151,-6.63,-6.39,1
33.171,-6.15,-6.15,1
33.191,-5.66,-5.9,1
33.211,-5.17,-5.78,1
33.231,,,
33.251,-4.92,-5.66,1
33.271,-4.8,-5.54,1
33.291,-4.68,-5.41,1
33.312,-4.68,-5.29,1
33.331,-4.68,-5.29,1
33.351,-4.68,-5.17,1
33.371,-4.44,-5.17,1
33.391,-4.19,-5.17,1
33.411,-4.07,-5.05,0
33.431,-4.07,-5.05,0
33.451,-4.07,-5.05,0
33.476,-4.19,-5.05,0
33.494,-4.19,-5.05,0
33.514,-4.19,-5.05,0
33.534,-4.07,-4.92,0
33.56,-3.95,-4.92,0
33.58,-4.07,-4.92,0
33.6,-4.07,-4.92,0
33.624,-4.07,-4.92,0
33.645,-4.19,-4.92,0
33.665,-4.19,-4.92,0
33.69,-4.19,-4.92,0
33.711,-3.95,-5.05,0
33.731,,,
33.731,,,
33.751,-3.82,-4.92,0
33.771,-3.95,-4.92,0
33.791,-3.95,-4.8,0
33.811,-4.07,-4.8,0
33.831,-4.07,-4.8,0
33.851,-4.07,-4.8,0
33.871,-4.07,-4.8,0
33.891,-3.95,-4.8,0
33.912,-3.95,-4.8,0
33.932,,,
33.951,-3.95,-4.92,0
33.971,-3.95,-4.92,0
33.991,-4.07,-4.92,0
34.012,-3.95,-4.92,0
34.031,-3.95,-4.8,0
34.051,-3.82,-4.8,0
34.071,-3.82,-4.68,0
34.091,-3.7,-4.68,0
34.111,-3.7,-4.68,0
34.131,-3.82,-4.68,0
34.151,-3.95,-4.8,0
34.171,-5.05,-5.9,0
34.192,,,
34.211,-6.02,-6.76,0
34.231,-6.76,-7.61,0
34.252,-7.12,-8.71,0
34.271,-7.86,-9.32,0
34.291,-8.83,-9.57,0
34.311,-9.32,-9.81,0
34.331,-9.45,-9.81,0
34.352,-9.69,-9.93,0
34.372,-9.81,-9.93,0
34.392,-9.93,-9.93,0
34.411,-9.93,-10.06,0
34.431,,,
34.451,-10.06,-10.06,0
34.472,-10.06,-10.06,0
34.492,-10.06,-10.18,0
34.512,-10.06,-10.18,0
34.531,-10.06,-10.18,0
34.554,-10.3,-10.18,0
34.575,,,
34.592,-10.3,-10.18,0
34.612,-10.3,-10.18,0
34.631,-10.3,-10.18,0
34.652,-10.18,-10.18,0
34.674,-10.18,-10.18,0
34.698,-10.18,-10.18,0
34.722,-10.3,-10.18,0
34.744,,,
34.752,-10.3,-10.18,0
34.771,,,
34.792,-10.3,-10.18,0
34.812,-10.18,-10.18,0
34.832,-10.18,-10.18,0
34.852,-10.18,-10.18,0
34.871,-10.18,-10.18,0
34.892,-10.3,-10.18,0
34.912,,,
34.932,-10.3,-10.18,0
34.952,-10.3,-10.18,0
34.972,-10.3,-10.18,1
34.992,-10.3,-10.18,1
35.013,-10.18,-10.18,1
35.034,-10.18,-10.18,1
35.061,-10.18,-10.18,1
35.079,,,
35.094,-10.18,-10.18,1
35.115,-10.3,-10.3,1
35.135,-10.3,-10.18,1
35.155,-10.3,-10.3,1
35.177,-10.3,-10.3,1
35.202,-10.3,-10.3,1
35.222,,,
35.235,-10.3,-10.3,1
35.255,-10.3,-10.3,1
35.275,-10.42,-10.18,1
35.296,-10.18,-10.18,1
35.321,-9.57,-9.45,1
35.341,-8.96,-8.96,1
35.361,,,
35.375,-8.47,-7.98,1
35.395,-7.98,-7.25,1
35.414,-7.25,-6.63,1
35.435,-6.51,-6.27,1
35.456,-6.02,-6.15,1
35.476,-5.54,-5.9,1
35.496,-5.05,-5.78,1
35.516,-4.92,-5.54,1
35.537,-4.68,-5.41,1
35.562,-4.68,-5.41,1
35.583,-4.8,-5.29,1
35.603,-4.68,-5.17,1
35.628,-4.68,-5.17,1
35.648,-4.31,-5.05,1
35.668,-4.19,-5.05,1
35.693,-4.07,-5.05,0
35.713,-4.07,-5.05,0
35.734,,,
35.735,,,
35.756,-4.07,-5.05,0
35.776,-4.31,-5.05,0
35.795,-4.19,-4.92,0
35.815,-4.19,-4.92,0
35.836,-4.07,-4.92,0
35.845,-3.95,-4.92,0
35.866,,,
35.885,-4.07,-4.8,0
35.905,-4.07,-4.92,0
35.926,-4.07,-4.92,0
35.946,-4.19,-4.92,0
35.965,-4.19,-4.92,0
35.986,-4.07,-4.92,0
36.005,-3.95,-4.92,0
36.025,-3.95,-4.92,0
36.045,-3.95,-4.92,0
36.065,,,
36.086,-3.95,-4.8,0
36.105,-3.95,-4.8,0
36.125,-4.07,-4.8,0
36.145,-4.07,-4.8,0
36.165,-4.07,-4.8,0
36.185,-3.95,-4.92,0
36.205,-3.95,-4.92,0
36.225,-3.95,-4.92,0
36.246,-3.95,-4.92,0
36.259,,,
36.279,-3.95,-4.92,0
36.299,-3.95,-4.92,0
36.319,-3.95,-4.8,0
36.339,-3.82,-4.8,0
36.359,-3.82,-4.8,0
36.38,-3.7,-4.68,0
36.399,-3.7,-4.68,0
36.419,-3.82,-4.8,0
36.439,-4.19,-5.05,0
36.459,,,
36.479,-5.41,-6.15,0
36.499,-6.27,-7,0
36.519,-6.76,-8.1,0
36.539,-7.25,-8.96,0
36.559,-8.22,-9.45,0
36.579,-8.96,-9.69,0
36.599,-9.45,-9.69,0
36.619,-9.57,-9.81,0
36.639,-9.81,-9.93,0
36.659,-9.93,-9.93,0
36.676,-10.06,-9.93,0
36.696,,,
36.716,-10.06,-10.06,0
36.737,-10.06,-10.06,0
36.757,-10.06,-10.06,0
36.777,-10.06,-10.06,0
36.797,-10.06,-10.18,0
36.82,-10.18,-10.18,0
36.845,-10.3,-10.06,0
36.864,,,
36.877,-10.18,-10.06,0
36.897,-10.3,-10.18,0
36.916,-10.18,-10.18,0
36.938,-10.18,-10.18,0
36.963,-10.18,-10.18,0
36.988,-10.18,-10.18,0
37.008,,,
37.017,-10.18,-10.18,0
37.037,,,
37.056,-10.3,-10.18,0
37.076,-10.18,-10.18,0
37.082,-10.18,-10.18,0
37.106,-10.18,-10.18,0
37.131,-10.18,-10.18,0
37.156,-10.3,-10.18,0
37.175,,,
37.183,-10.3,-10.18,0
37.202,,,
37.223,-10.3,-10.18,0
37.243,-10.3,-10.18,1
37.263,-10.18,-10.18,1
37.282,-10.18,-10.18,1
37.303,-10.18,-10.18,1
37.323,-10.18,-10.3,1
37.344,,,
37.363,-10.3,-10.18,1
37.383,-10.18,-10.18,1
37.402,-10.3,-10.18,1
37.423,-10.3,-10.18,1
37.45,-10.3,-10.18,1
37.467,-10.3,-10.3,1
37.488,,,
37.509,-10.3,-10.3,1
37.529,-10.3,-10.18,1
37.548,-10.3,-10.3,1
37.568,-10.3,-10.3,1
37.588,-10.06,-9.93,1
37.608,,,
37.629,-9.32,-9.32,1
37.648,-8.71,-8.59,1
37.668,-8.35,-7.61,1
37.689,-7.73,-7,1
37.708,-7,-6.51,1
37.728,-6.39,-6.27,1
37.749,-5.78,-6.02,1
37.768,-5.41,-5.9,1
37.788,-5.05,-5.66,1
37.808,-4.8,-5.66,1
37.829,-4.8,-5.41,1
37.849,-4.68,-5.41,1
37.872,-4.8,-5.29,1
37.893,-4.68,-5.29,1
37.914,-4.56,-5.17,1
37.937,-4.31,-5.17,1
37.958,-4.19,-5.17,0
37.979,-4.07,-5.05,0
38.003,-4.07,-5.17,0
38.024,-4.19,-5.17,0
38.044,,,
38.054,-4.31,-5.05,0
38.073,-4.19,-4.92,0
38.093,-4.19,-4.92,0
38.113,,,
38.134,-4.07,-4.92,0
38.153,-4.07,-4.92,0
38.173,-4.07,-4.92,0
38.193,-4.07,-4.92,0
38.213,-4.19,-4.92,0
38.234,-4.31,-4.92,0
38.253,-4.07,-4.92,0
38.273,-4.07,-4.92,0
38.293,-3.95,-4.92,0
38.314,-3.95,-4.92,0
38.334,-3.95,-4.8,0
38.354,-3.95,-4.8,0
38.374,,,
38.393,-4.07,-4.8,0
38.414,-4.07,-4.8,0
38.434,-4.07,-4.8,0
38.454,-4.07,-4.8,0
38.474,-3.95,-4.8,0
38.493,-3.95,-4.92,0
38.514,-3.95,-4.8,0
38.534,-3.95,-4.92,0
38.553,-3.95,-4.8,0
38.573,-3.95,-4.8,0
38.594,-3.95,-4.8,0
38.613,-3.82,-4.68,0
38.633,,,
38.653,-3.82,-4.8,0
38.674,-3.82,-4.68,0
38.693,-3.82,-4.8,0
38.7,,,
38.72,-3.95,-4.8,0
38.741,-4.68,-5.54,0
38.761,-5.9,-6.63,0
38.781,-6.63,-7.25,0
38.8,-7,-8.59,0
38.82,-7.61,-9.2,0
38.84,-8.59,-9.57,0
38.861,-9.2,-9.69,0
38.88,-9.57,-9.81,0
38.901,-9.69,-9.93,0
38.921,-9.93,-9.93,0
38.942,-10.06,-9.93,0
38.967,-10.06,-9.93,0
38.986,,,
39.001,-10.06,-10.06,0
39.02,-10.06,-10.06,0
39.041,-10.06,-10.18,0
39.061,-10.06,-10.18,0
39.085,-10.18,-10.06,0
39.11,-10.18,-10.06,0
39.13,,,
39.15,-10.3,-10.06,0
39.17,-10.3,-10.18,0
39.19,-10.18,-10.06,0
39.21,-10.18,-10.06,0
39.231,-10.18,-10.18,0
39.253,-10.18,-10.18,0
39.277,-10.18,-10.18,0
39.297,,,
39.31,-10.18,-10.18,0
39.33,-10.18,-10.18,0
39.35,-10.18,-10.18,0
39.371,-10.18,-10.18,0
39.396,-10.18,-10.18,0
39.421,-10.18,-10.18,0
39.445,-10.3,-10.18,0
39.465,,,
39.47,-10.3,-10.18,0
39.49,-10.3,-10.18,0
39.515,-10.3,-10.18,1
39.539,-10.3,-10.18,1
39.564,-10.18,-10.18,1
39.589,-10.18,-10.18,1
39.609,,,
39.616,-10.18,-10.18,1
39.635,,,
39.655,-10.18,-10.18,1
39.675,-10.3,-10.3,1
39.696,-10.3,-10.18,1
39.716,-10.3,-10.18,1
39.735,-10.3,-10.3,1
39.756,-10.3,-10.3,1
39.777,,,
39.796,-10.3,-10.3,1
39.816,-10.42,-10.3,1
39.835,-10.3,-10.18,1
39.856,-10.3,-10.3,1
39.876,-9.69,-9.57,1
39.896,-9.08,-9.08,1
39.916,,,
39.936,-8.71,-8.22,1
39.956,-8.1,-7.37,1
39.976,-7.49,-6.76,1
39.996,-6.76,-6.39,1
40.016,-6.15,-6.15,1
40.036,-5.66,-6.02,1
40.057,-5.29,-5.78,1
40.077,-5.05,-5.66,1
40.097,-4.8,-5.54,1
40.116,-4.68,-5.41,1
40.136,-4.8,-5.41,1
40.158,-4.68,-5.29,1
40.183,-4.68,-5.17,1
40.203,-4.44,-5.17,1
40.223,-4.31,-5.17,1
40.248,-4.19,-5.17,0
40.269,-4.07,-5.17,0
40.288,-4.07,-5.05,0
40.313,-4.19,-5.17,0
40.334,-4.31,-5.05,0
40.354,,,
40.375,-4.19,-5.05,0
40.395,-4.19,-5.05,0
40.415,-4.07,-4.92,0
40.435,-4.07,-4.92,0
40.455,-4.07,-4.92,0
40.474,-4.07,-4.92,0
40.494,-4.19,-4.92,0
40.515,-4.19,-5.05,0
40.535,-4.07,-5.05,0
40.555,,,
40.574,-4.07,-5.05,0
40.595,-3.95,-4.92,0
40.614,-3.95,-4.92,0
40.635,-3.95,-4.92,0
40.655,-3.95,-4.8,0
40.674,-4.07,-4.8,0
40.694,-4.07,-4.8,0
40.715,-4.07,-4.8,0
40.734,-4.07,-4.8,0
40.747,,,
40.767,-3.95,-4.92,0
40.788,-3.95,-4.92,0
40.808,-3.95,-4.92,0
40.828,-3.95,-4.92,0
40.848,-3.95,-4.92,0
40.868,-3.95,-4.8,0
40.888,-3.95,-4.8,0
40.908,-3.82,-4.68,0
40.928,-3.82,-4.68,0
40.947,,,
40.967,-3.82,-4.68,0
40.988,-3.95,-4.68,0
41.008,-3.95,-4.8,0
41.027,-5.17,-5.9,0
41.048,-6.15,-6.76,0
41.068,-6.76,-7.61,0
41.088,-7.12,-8.71,0
41.108,-7.98,-9.32,0
41.128,-8.83,-9.57,0
41.148,-9.32,-9.69,0
41.169,-9.57,-9.81,0
41.188,-9.81,-9.93,0
41.21,-9.93,-9.93,0
41.231,-10.06,-9.93,0
41.252,,,
41.268,-10.06,-9.93,0
41.288,-10.06,-10.06,0
41.308,-10.06,-10.06,0
41.329,-10.06,-10.18,0
41.349,-10.06,-10.18,0
41.37,,,
41.388,-10.06,-10.18,0
41.409,-10.18,-10.18,0
41.428,-10.3,-10.18,0
41.448,-10.18,-10.18,0
41.468,-10.18,-10.06,0
41.493,-10.18,-10.18,0
41.518,-10.18,-10.18,0
41.538,,,
41.549,-10.18,-10.18,0
41.569,-10.18,-10.18,0
41.59,-10.18,-10.18,0
41.611,-10.18,-10.18,0
41.637,-10.18,-10.18,0
41.661,-10.18,-10.18,0
41.682,,,
41.689,-10.18,-10.18,0
41.71,,,
41.729,-10.18,-10.18,0
41.749,-10.18,-10.18,0
41.769,-10.3,-10.18,0
41.79,-10.3,-10.18,0
41.81,-10.3,-10.18,1
41.829,-10.18,-10.18,1
41.85,,,
41.869,-10.18,-10.18,1
41.89,-10.18,-10.18,1
41.909,-10.3,-10.18,1
41.929,-10.18,-10.18,1
41.949,-10.18,-10.18,1
41.972,-10.3,-10.18,1
41.997,-10.3,-10.18,1
42.017,,,
42.03,-10.3,-10.3,1
42.049,-10.3,-10.18,1
42.07,-10.3,-10.18,1
42.091,-10.3,-10.18,1
42.115,-10.42,-10.3,1
42.14,-10.18,-10.06,1
42.161,,,
42.17,-9.57,-9.45,1
42.189,-8.96,-8.83,1
42.209,-8.47,-7.98,1
42.229,,,
42.249,-7.98,-7.12,1
42.269,-7.12,-6.63,1
42.289,-6.51,-6.27,1
42.309,-5.9,-6.15,1
42.329,-5.54,-5.9,1
42.35,-5.17,-5.78,1
42.371,-4.92,-5.66,1
42.39,-4.8,-5.54,1
42.411,-4.68,-5.41,1
42.43,-4.8,-5.29,1
42.45,-4.68,-5.17,1
42.472,-4.56,-5.17,1
42.493,-4.44,-5.17,1
42.513,-4.31,-5.17,1
42.534,-4.07,-5.05,0
42.558,-4.07,-5.17,0
42.579,-4.07,-5.17,0
42.599,-4.31,-5.05,0
42.623,-4.19,-5.05,0
42.644,-4.07,-4.92,0
42.665,,,
42.671,-4.07,-4.92,0
42.69,-4.07,-4.92,0
42.71,-4.07,-4.92,0
42.73,,,
42.75,-4.07,-4.92,0
42.755,-4.07,-4.92,0
42.775,-4.19,-4.92,0
42.796,,,
42.816,-4.07,-4.92,0
42.835,-4.07,-4.92,0
42.855,-4.07,-4.92,0
42.875,-3.95,-4.92,0
42.895,-3.95,-4.92,0
42.916,-3.95,-4.92,0
42.936,-4.07,-4.8,0
42.955,-4.07,-4.8,0
42.975,-4.07,-4.8,0
42.995,,,
43.016,-4.07,-4.8,0
43.035,-4.07,-4.92,0
43.055,-3.95,-4.92,0
43.075,-4.07,-4.92,0
43.095,-3.95,-5.05,0
43.115,-3.95,-4.92,0
43.136,-3.95,-4.8,0
43.155,-3.95,-4.8,0
43.168,-3.95,-4.68,0
43.189,,,
43.209,-3.82,-4.8,0
43.229,-3.82,-4.68,0
43.249,-3.82,-4.68,0
43.268,-3.95,-4.8,0
43.288,-4.31,-5.17,0
43.308,-5.54,-6.27,0
43.328,-6.39,-7,0
43.348,-6.88,-8.22,0
43.368,-7.37,-9.08,0
43.388,,,
43.408,-8.35,-9.45,0
43.428,-8.96,-9.69,0
43.448,-9.45,-9.81,0
43.468,-9.69,-9.93,0
43.488,-9.81,-9.93,0
43.508,-9.93,-9.93,0
43.528,-9.93,-10.06,0
43.548,-10.06,-10.06,0
43.569,-10.06,-10.06,0
43.589,-9.93,-10.06,0
43.611,,,
43.63,-10.06,-10.18,0
43.65,-10.18,-10.18,0
43.669,-10.18,-10.18,0
43.69,-10.18,-10.18,0
43.709,-10.18,-10.06,0
43.733,-10.3,-10.06,0
43.758,-10.18,-10.18,0
43.779,,,
43.789,-10.18,-10.18,0
43.809,-10.18,-10.18,0
43.829,-10.18,-10.18,0
43.852,-10.3,-10.18,0
43.876,-10.3,-10.18,0
43.901,-10.3,-10.18,0
43.921,,,
43.929,-10.18,-10.18,0
43.949,,,
43.969,-10.18,-10.18,0
43.971,-10.18,-10.18,0
43.995,-10.18,-10.3,0
44.02,-10.3,-10.3,0
44.045,-10.3,-10.18,0
44.069,-10.3,-10.18,1
44.09,,,
44.091,,,
44.112,-10.3,-10.18,1
44.131,-10.3,-10.18,1
44.151,-10.3,-10.18,1
44.171,-10.18,-10.18,1
44.192,-10.18,-10.18,1
44.213,-10.3,-10.3,1
44.233,,,
44.251,-10.3,-10.18,1
44.272,-10.3,-10.18,1
44.292,-10.3,-10.18,1
44.312,-10.3,-10.3,1
44.331,-10.3,-10.3,1
44.356,-10.3,-10.3,1
44.381,-10.3,-10.3,1
44.401,,,
44.421,-10.3,-10.3,1
44.442,-9.93,-9.93,1
44.462,-9.32,-9.32,1
44.482,-8.71,-8.59,1
44.501,-8.35,-7.73,1
44.522,-7.86,-7,1
44.542,-7,-6.51,1
44.561,-6.39,-6.27,1
44.581,-5.78,-6.02,1
44.603,-5.41,-5.78,1
44.622,,,
44.641,-5.05,-5.66,1
44.662,-4.92,-5.54,1
44.682,-4.68,-5.41,1
44.702,-4.8,-5.29,1
44.722,-4.68,-5.17,1
44.742,-4.68,-5.17,1
44.761,-4.44,-5.05,1
44.782,-4.31,-5.17,1
44.802,-4.19,-5.05,0
44.822,,,
44.842,-4.07,-5.05,0
44.863,-4.07,-5.05,0
44.883,-4.19,-5.05,0
44.902,-4.19,-4.92,0
44.923,-4.19,-4.92,0
44.943,-4.07,-4.8,0
44.962,-4.07,-4.8,0
44.982,-4.07,-4.8,0
45.003,-4.07,-4.68,0
45.023,-4.07,-4.8,0
45.042,-4.07,-4.8,0
45.062,-4.19,-4.68,0
45.082,,,
45.103,-4.07,-4.8,0
45.122,-4.07,-4.68,0
45.142,-3.95,-4.68,0
45.162,-3.82,-4.68,0
45.182,-3.95,-4.68,0
45.192,-3.95,-4.56,0
45.216,-3.95,-4.56,0
45.237,-4.07,-4.56,0
45.257,-3.95,-4.56,0
45.282,-3.95,-4.56,0
45.302,-4.07,-4.56,0
45.322,-3.95,-4.68,0
45.347,-3.82,-4.68,0
45.367,-3.95,-4.68,0
45.388,-3.82,-4.56,0
45.412,-3.95,-4.56,0
45.433,-3.82,-4.56,0
45.454,-3.82,-4.56,0
45.479,-3.82,-4.56,0
45.499,-3.7,-4.56,0
45.519,,,
45.519,,,
45.533,-3.82,-4.56,0
45.553,-3.82,-4.56,0
45.573,-4.56,-5.29,0
45.593,-5.78,-6.39,0
45.614,-6.51,-7.12,0
45.634,-7,-8.47,0
45.654,,,
45.674,-7.49,-9.2,0
45.694,-8.59,-9.57,0
45.714,-9.08,-9.69,0
45.734,-9.45,-9.93,0
45.754,-9.69,-9.93,0
45.774,-9.81,-10.06,0
45.793,-9.93,-10.06,0
45.814,-9.93,-10.06,0
45.834,-10.06,-10.18,0
45.856,-10.06,-10.18,0
45.876,,,
45.894,-10.06,-10.18,0
45.914,-10.18,-10.18,0
45.933,-10.18,-10.3,0
45.954,-10.18,-10.18,0
45.974,-10.3,-10.18,0
45.998,-10.3,-10.18,0
46.023,-10.18,-10.18,0
46.043,,,
46.059,-10.18,-10.18,0
46.078,-10.18,-10.18,0
46.099,-10.3,-10.18,0
46.118,-10.18,-10.3,0
46.142,-10.3,-10.18,0
46.167,-10.3,-10.3,0
46.191,-10.3,-10.3,0
46.211,,,
46.218,-10.18,-10.3,0
46.239,-10.3,-10.3,0
46.261,-10.3,-10.3,0
46.285,-10.3,-10.3,0
46.31,-10.3,-10.3,0
46.334,-10.3,-10.3,0
46.355,,,
46.359,,,
46.379,-10.3,-10.3,1
46.398,-10.3,-10.3,1
46.404,-10.3,-10.3,1
46.428,-10.3,-10.3,1
46.453,-10.3,-10.3,1
46.478,-10.3,-10.3,1
46.502,-10.3,-10.3,1
46.523,,,
46.525,,,
46.545,-10.3,-10.3,1
46.564,-10.3,-10.3,1
46.585,-10.3,-10.3,1
46.605,-10.3,-10.42,1
46.625,-10.3,-10.3,1
46.645,-10.3,-10.3,1
46.666,,,
46.684,-10.3,-10.3,1
46.705,-10.3,-10.3,1
46.725,-9.69,-9.81,1
46.745,-9.08,-9.2,1
46.765,-8.59,-8.35,1
46.785,-8.1,-7.49,1
46.806,-7.49,-6.76,1
46.826,-6.76,-6.39,1
46.846,-6.02,-6.15,1
46.87,-5.66,-5.9,1
46.892,-5.41,-5.78,1
46.912,-5.05,-5.66,1
46.936,-4.8,-5.54,1
46.956,-4.8,-5.29,1
46.977,,,
46.986,-4.8,-5.29,1
47.006,-4.8,-5.17,1
47.026,-4.68,-5.05,1
47.046,,,
47.066,-4.44,-5.05,1
47.086,-4.44,-5.05,1
47.106,-4.19,-5.05,0
47.126,-4.07,-5.05,0
47.146,-4.07,-5.05,0
47.166,-4.19,-5.05,0
47.186,-4.31,-4.92,0
47.206,-4.19,-4.8,0
47.227,-4.19,-4.92,0
47.247,-4.19,-4.8,0
47.267,-4.07,-4.8,0
47.287,-4.07,-4.8,0
47.308,,,
47.327,-4.19,-4.8,0
47.347,-4.31,-4.92,0
47.367,-4.31,-4.8,0
47.386,-4.07,-4.92,0
47.406,-4.19,-4.92,0
47.427,-4.07,-4.8,0
47.447,-3.95,-4.8,0
47.467,-4.07,-4.8,0
47.487,-4.07,-4.8,0
47.507,-4.07,-4.68,0
47.527,-4.19,-4.68,0
47.547,-4.07,-4.68,0
47.567,,,
47.587,-4.19,-4.8,0
47.607,-4.07,-4.8,0
47.612,-3.95,-4.8,0
47.633,,,
47.653,-3.95,-4.8,0
47.673,-3.95,-4.8,0
47.693,-3.95,-4.8,0
47.713,-3.95,-4.68,0
47.733,-3.95,-4.68,0
47.753,-3.95,-4.68,0
47.773,-3.82,-4.56,0
47.792,-3.82,-4.56,0
47.813,-3.95,-4.56,0
47.833,-4.07,-4.68,0
47.854,-5.17,-5.78,0
47.874,-6.15,-6.63,0
47.899,-6.88,-7.61,0
47.92,-7.12,-8.71,0
47.939,-7.86,-9.32,0
47.965,-8.83,-9.57,0
47.985,-9.32,-9.81,0
48.005,-9.57,-9.93,0
48.031,-9.81,-9.93,0
48.051,-9.93,-10.06,0
48.075,-9.93,-10.06,0
48.096,-9.93,-10.06,0
48.12,-10.06,-10.06,0
48.145,-10.06,-10.18,0
48.165,,,
48.171,-10.06,-10.18,0
48.192,,,
48.211,-10.18,-10.18,0
48.231,-10.18,-10.18,0
48.251,-10.18,-10.18,0
48.271,-10.3,-10.18,0
48.291,-10.3,-10.18,0
48.311,,,
48.331,-10.18,-10.18,0
48.351,-10.18,-10.18,0
48.371,-10.18,-10.18,0
48.391,-10.3,-10.18,0
48.411,-10.3,-10.18,0
48.431,-10.18,-10.3,0
48.456,-10.18,-10.3,0
48.477,,,
48.492,-10.18,-10.3,0
48.512,-10.18,-10.18,0
48.532,-10.18,-10.3,0
48.552,-10.18,-10.18,0
48.575,-10.3,-10.18,0
48.6,-10.3,-10.3,0
48.624,-10.3,-10.3,0
48.644,,,
48.652,-10.18,-10.3,1
48.672,-10.18,-10.3,1
48.693,-10.18,-10.3,1
48.717,-10.18,-10.3,1
48.742,-10.18,-10.3,1
48.767,-10.18,-10.3,1
48.788,,,
48.792,-10.18,-10.3,1
48.812,,,
48.832,-10.3,-10.3,1
48.852,-10.3,-10.3,1
48.873,-10.3,-10.3,1
48.892,-10.3,-10.3,1
48.912,-10.3,-10.3,1
48.935,-10.3,-10.3,1
48.955,,,
48.972,-10.3,-10.3,1
48.992,-10.18,-10.18,1
49.013,-9.45,-9.57,1
49.032,-8.83,-8.83,1
49.052,-8.35,-7.98,1
49.072,-7.86,-7.12,1
49.093,,,
49.112,-7.12,-6.63,1
49.132,-6.39,-6.27,1
49.152,-5.9,-6.02,1
49.172,-5.41,-5.9,1
49.192,-5.29,-5.66,1
49.213,-5.05,-5.54,1
49.232,-4.8,-5.54,1
49.252,-4.68,-5.29,1
49.274,-4.8,-5.29,1
49.292,-4.8,-5.17,1
49.312,-4.68,-5.17,1
49.333,-4.56,-5.17,1
49.361,-4.44,-5.05,1
49.377,-4.19,-5.05,0
49.398,-4.19,-5.05,0
49.419,-4.07,-5.05,0
49.441,-4.31,-5.05,0
49.464,-4.44,-4.92,0
49.484,-4.19,-4.92,0
49.505,-4.19,-4.92,0
49.528,,,
49.533,,,
49.553,-4.19,-4.8,0
49.573,-4.19,-4.8,0
49.593,-4.19,-4.8,0
49.612,-4.19,-4.8,0
49.633,-4.19,-4.8,0
49.637,-4.31,-4.92,0
49.658,,,
49.677,-4.19,-4.8,0
49.697,-4.07,-4.8,0
49.717,-4.07,-4.8,0
49.737,-3.95,-4.8,0
49.757,-4.07,-4.68,0
49.777,-4.07,-4.8,0
49.797,-4.19,-4.8,0
49.818,-4.19,-4.68,0
49.838,-4.19,-4.8,0
49.857,,,
49.877,-4.19,-4.68,0
49.897,-4.07,-4.8,0
49.917,-4.07,-4.8,0
49.937,-4.07,-4.8,0
49.957,-4.07,-4.8,0
49.977,-4.07,-4.68,0
49.997,-3.95,-4.8,0
50.017,-3.95,-4.68,0
50.04,-3.95,-4.68,0
