Time (s),Pressure 1 (kPa),Pressure 2 (kPa),Switch State
0.127,-7.61,-7.86,1
0.148,-7.61,-7.86,1
0.168,-7.49,-7.86,1
0.188,-7.61,-7.86,1
0.208,-7.49,-7.86,1
0.228,-7.49,-7.86,1
0.248,-7.61,-7.86,1
0.268,-7.61,-7.86,1
0.288,-7.49,-7.86,1
0.308,-7.61,-7.86,1
0.328,-7.49,-7.86,1
0.347,-7.49,-7.86,1
0.368,-7.61,-7.86,1
0.388,-7.61,-7.86,1
0.407,-7.61,-7.86,1
0.428,-7.61,-7.86,1
0.448,-7.49,-7.86,1
0.47,-7.61,-7.86,1
0.487,-7.49,-7.86,1
0.508,-7.49,-7.86,1
0.527,-7.49,-7.86,1
0.548,-7.49,-7.86,1
0.567,-7.49,-7.86,1
0.588,-7.49,-7.86,1
0.608,-7.61,-7.86,1
0.628,-7.49,-7.98,1
0.648,-7.61,-7.86,1
0.668,-7.49,-7.86,1
0.688,-7.49,-7.86,1
0.708,-7.61,-7.86,1
0.728,-7.61,-7.86,1
0.748,-7.61,-7.86,1
0.768,-7.49,-7.86,1
0.788,-7.61,-7.86,1
0.808,-7.61,-7.86,1
0.828,-7.61,-7.86,1
0.848,-7.49,-7.86,1
0.868,-7.49,-7.98,1
0.888,-7.61,-7.86,1
0.908,-7.61,-7.86,1
0.928,-7.61,-7.86,1
0.928,-7.61,-7.86,1
0.949,-7.61,-7.98,1
0.969,-7.61,-7.98,1
0.988,-7.61,-7.98,1
1.009,-7.61,-7.98,1
1.028,-7.61,-7.86,1
1.048,-7.61,-7.86,1
1.069,-7.61,-7.86,1
1.089,-7.61,-7.86,1
1.108,-7.49,-7.86,1
1.129,-7.61,-7.86,1
1.149,-7.49,-7.86,1
1.168,-7.49,-7.86,1
1.188,-7.61,-7.98,1
1.208,-7.61,-7.86,1
1.229,-7.61,-7.98,1
1.248,-7.61,-7.86,1
1.269,-7.61,-7.86,1
1.289,-7.61,-7.98,1
1.309,-7.49,-7.86,1
1.328,-7.61,-7.86,1
1.348,-7.61,-7.86,1
1.368,-7.49,-7.86,1
1.389,-7.61,-7.86,1
1.408,-7.61,-7.86,1
1.429,-7.61,-7.98,1
1.449,-7.61,-7.98,1
1.469,-7.61,-7.86,1
1.489,-7.61,-7.86,1
1.509,-7.61,-7.86,1
1.528,-7.49,-7.86,1
1.548,-7.61,-7.86,1
1.569,-7.61,-7.86,1
1.589,-7.61,-7.86,1
1.608,-7.61,-7.86,1
1.628,-7.49,-7.86,1
1.648,-7.61,-7.86,1
1.67,-7.61,-7.86,1
1.689,-7.49,-7.86,1
1.708,-7.61,-7.86,1
1.729,-7.49,-7.86,1
1.729,-7.61,-7.98,1
1.75,-7.49,-7.86,1
1.77,-7.61,-7.86,1
1.789,-7.61,-7.86,1
1.809,-7.61,-7.86,1
1.83,-7.61,-7.86,1
1.85,-7.61,-7.86,1
1.869,-7.49,-7.86,1
1.889,-7.61,-7.86,1
1.909,-7.49,-7.86,1
1.929,-7.61,-7.86,1
1.949,-7.61,-7.86,1
1.969,-7.61,-7.98,1
1.989,-7.61,-7.86,1
2.009,-7.49,-7.86,1
2.029,-7.49,-7.86,1
2.049,-7.61,-7.98,1
2.07,-7.61,-7.86,1
2.089,-7.49,-7.86,1
2.109,-7.61,-7.86,1
2.129,-7.49,-7.86,1
2.149,-7.61,-7.86,1
2.169,-7.61,-7.86,1
2.189,-7.61,-7.86,1
2.209,-7.61,-7.86,1
2.23,-7.61,-7.86,1
2.25,-7.61,-7.86,1
2.27,-7.61,-7.86,1
2.289,-7.61,-7.86,1
2.309,-7.61,-7.86,1
2.329,-7.61,-7.86,1
2.349,-7.49,-7.86,1
2.369,-7.61,-7.86,1
2.389,-7.61,-7.86,1
2.409,-7.49,-7.86,1
2.43,-7.61,-7.86,1
2.449,-7.49,-7.86,1
2.469,-7.61,-7.86,1
2.489,-7.61,-7.86,1
2.51,-7.49,-7.86,1
2.529,-7.61,-7.86,1
2.529,-7.49,-7.86,1
2.55,-7.61,-7.86,1
2.57,-7.49,-7.86,1
2.589,-7.61,-7.98,1
2.609,-7.61,-7.86,1
2.629,-7.61,-7.86,1
2.649,-7.61,-7.98,1
2.67,-7.61,-7.98,1
2.69,-7.49,-7.86,1
2.709,-7.61,-7.86,1
2.729,-7.49,-7.86,1
2.75,-7.49,-7.86,1
2.769,-7.49,-7.86,1
2.789,-7.49,-7.86,1
2.81,-7.61,-7.86,1
2.83,-7.61,-7.86,1
2.849,-7.49,-7.86,1
2.869,-7.61,-7.86,1
2.889,-7.49,-7.86,1
2.909,-7.49,-7.86,1
2.929,-7.49,-7.86,1
2.929,-7.61,-7.86,1
2.95,-7.61,-7.86,1
2.969,-7.61,-7.86,1
2.99,-7.49,-7.86,1
3.01,-7.49,-7.86,1
3.029,-7.61,-7.86,1
3.049,-7.49,-7.86,1
3.069,-7.61,-7.86,1
3.09,-7.61,-7.86,1
3.109,-7.61,-7.86,1
3.13,-7.49,-7.86,1
3.15,-7.61,-7.86,1
3.169,-7.61,-7.86,1
3.189,-7.61,-7.86,1
3.209,-7.49,-7.86,1
3.23,-7.49,-7.86,1
3.249,-7.61,-7.86,1
3.27,-7.61,-7.86,1
3.29,-7.49,-7.86,1
3.31,-7.49,-7.86,1
3.329,-7.49,-7.86,1
3.35,-7.25,-7.98,1
3.369,-7,-7.86,1
3.39,-7.12,-7.86,1
3.41,-7.12,-7.86,1
3.43,-7.25,-7.86,1
3.45,-7.25,-7.86,1
3.47,-7.25,-7.86,1
3.49,-7.37,-7.86,1
3.51,-7.37,-7.86,1
3.53,-7.49,-7.86,1
3.55,-7.49,-7.86,1
3.57,-7.49,-7.98,1
3.59,-7.49,-7.86,1
3.611,-7.49,-7.86,1
3.63,-7.49,-7.86,1
3.65,-7.49,-7.86,1
3.67,-7.49,-7.86,1
3.69,-7.49,-7.98,1
3.71,-7.49,-8.35,1
3.73,-7.49,-8.71,1
3.73,-7.49,-8.83,1
3.75,-7.49,-8.96,1
3.771,-7.49,-8.83,1
3.791,-7.61,-8.59,1
3.811,-7.61,-8.47,1
3.83,-7.49,-8.22,1
3.85,-7.49,-8.1,1
3.871,-7.61,-8.1,1
3.891,-7.49,-7.98,1
3.911,-7.49,-7.98,1
3.93,-7.61,-7.98,1
3.951,-7.49,-7.86,1
3.97,-7.61,-7.98,1
3.99,-7.49,-7.98,1
4.011,-7.49,-7.98,1
4.03,-7.61,-7.98,1
4.051,-7.61,-7.98,1
4.07,-7.49,-7.98,1
4.09,-7.61,-7.98,1
4.11,-7.61,-7.98,1
4.13,-7.61,-7.86,1
4.13,-7.61,-7.98,1
4.15,-7.61,-7.86,1
4.171,-7.49,-7.86,1
4.19,-7.61,-7.86,1
4.211,-7.61,-7.86,1
4.23,-7.49,-7.86,1
4.251,-7.49,-7.86,1
4.271,-7.49,-7.98,1
4.29,-7.61,-7.86,1
4.311,-7.49,-7.86,1
4.331,-7.61,-7.86,1
4.351,-7.61,-7.98,1
4.371,-7.49,-7.86,1
4.391,-7.49,-7.86,1
4.411,-7.61,-7.86,1
4.431,-7.61,-7.98,1
4.451,-7.49,-7.86,1
4.471,-7.61,-7.86,1
4.491,-7.61,-7.86,1
4.51,-7.61,-7.98,1
4.531,-7.49,-7.98,1
4.552,-7.61,-7.86,1
4.572,-7.61,-7.86,1
4.592,-7.49,-7.98,1
4.611,-6.88,-7.73,1
4.632,-5.54,-6.76,1
4.652,-4.68,-5.78,1
4.672,-3.82,-5.17,1
4.691,-3.09,-4.56,1
4.712,-2.6,-4.07,1
4.731,-2.36,-3.7,1
4.752,-2.11,-3.34,1
4.772,-1.75,-3.09,1
4.792,-1.5,-2.85,1
4.811,-1.38,-2.6,0
4.831,-1.01,-2.48,0
4.852,-0.89,-2.36,0
4.872,-0.77,-2.24,0
4.892,-0.65,-2.11,0
4.912,-0.65,-1.99,0
4.932,-0.53,-1.99,0
4.932,-0.65,-1.87,0
4.952,-0.53,-1.87,0
4.972,-0.53,-1.75,0
4.992,-0.4,-1.75,0
5.013,-0.28,-1.63,0
5.033,-0.28,-1.75,0
5.053,-0.28,-1.63,0
5.073,-0.4,-1.75,0
5.093,-0.4,-1.75,0
5.112,-0.28,-1.75,0
5.132,-0.16,-1.63,0
5.152,-0.04,-1.5,0
5.173,-0.04,-1.5,0
5.193,-0.16,-1.5,0
5.213,-0.77,-2.11,0
5.232,-2.97,-4.07,0
5.253,-4.68,-6.39,0
5.273,-5.78,-8.83,0
5.293,-7.49,-9.93,0
5.313,-9.45,-10.42,0
5.333,-10.42,-10.67,0
5.333,-10.79,-10.91,0
5.353,-10.91,-11.03,0
5.373,-11.03,-11.16,0
5.393,-11.16,-11.16,0
5.414,-11.16,-11.16,0
5.434,-11.28,-11.28,0
5.453,-11.28,-11.16,0
5.473,-11.4,-11.28,0
5.493,-11.28,-11.28,0
5.513,-11.4,-11.28,0
5.534,-11.4,-11.28,0
5.553,-11.4,-11.28,0
5.573,-11.4,-11.28,0
5.593,-11.4,-11.4,0
5.613,-11.4,-11.4,1
5.633,-11.4,-11.28,1
5.653,-11.4,-11.4,1
5.674,-11.4,-11.28,1
5.694,-11.4,-11.28,1
5.717,-11.4,-11.28,1
5.733,-11.4,-11.4,1
5.733,-11.52,-11.4,1
5.754,-11.52,-11.4,1
5.774,-11.4,-11.28,1
5.794,-10.91,-10.67,1
5.814,-10.18,-9.93,1
5.833,-8.96,-8.47,1
5.854,-7.12,-7.12,1
5.873,-5.66,-6.15,1
5.894,-4.8,-5.41,1
5.914,-4.19,-4.68,1
5.933,-3.58,-4.19,1
5.953,-2.97,-3.82,1
5.974,-2.48,-3.58,1
5.993,-2.24,-3.34,1
6.014,-1.99,-3.09,0
6.034,-1.75,-2.97,0
6.054,-1.26,-2.72,0
6.073,-1.26,-2.48,0
6.093,-1.26,-2.36,0
6.114,-1.14,-2.24,0
6.134,-1.01,-2.24,0
6.134,-0.77,-2.24,0
6.155,-0.65,-2.11,0
6.175,-0.77,-2.11,0
6.194,-0.77,-1.99,0
6.215,-0.65,-1.87,0
6.235,-0.53,-1.75,0
6.254,-0.53,-1.75,0
6.275,-0.53,-1.87,0
6.295,-0.4,-1.99,0
6.315,-0.4,-1.87,0
6.334,-0.28,-1.75,0
6.355,-0.28,-1.63,0
6.374,-0.53,-1.5,0
6.394,-1.01,-2.36,0
6.415,-3.21,-4.07,0
6.435,-4.92,-6.02,0
6.455,-6.39,-8.59,0
6.475,-8.71,-9.81,0
6.494,-10.06,-10.42,0
6.515,-10.54,-10.67,0
6.535,-10.91,-10.91,0
6.555,-11.03,-11.03,0
6.575,-11.03,-11.03,0
6.595,-11.03,-11.16,0
6.615,-11.28,-11.16,0
6.635,-11.28,-11.16,0
6.655,-11.4,-11.16,0
6.675,-11.28,-11.16,0
6.695,-11.28,-11.16,0
6.715,-11.28,-11.28,0
6.735,-11.4,-11.28,0
6.755,-11.28,-11.28,0
6.775,-11.28,-11.28,0
6.796,-11.4,-11.28,0
6.816,-11.4,-11.28,1
6.835,-11.4,-11.28,1
6.855,-11.4,-11.28,1
6.875,-11.28,-11.28,1
6.895,-11.4,-11.28,1
6.915,-11.4,-11.28,1
6.935,-11.4,-11.28,1
6.935,-11.4,-11.28,1
6.955,-11.4,-11.4,1
6.975,-11.28,-11.16,1
6.995,-10.79,-10.54,1
7.015,-10.06,-8.96,1
7.036,-8.83,-7.37,1
7.055,-7,-6.39,1
7.076,-5.66,-5.54,1
7.096,-4.8,-4.92,1
7.116,-4.07,-4.44,1
7.135,-3.58,-4.07,1
7.155,-3.09,-3.7,1
7.175,-2.48,-3.46,1
7.196,-2.24,-3.21,1
7.215,-2.11,-2.97,0
7.236,-1.75,-2.85,0
7.256,-1.38,-2.6,0
7.275,-1.26,-2.6,0
7.295,-1.26,-2.48,0
7.315,-1.01,-2.24,0
7.336,-1.01,-2.24,0
7.336,-0.77,-2.24,0
7.356,-0.77,-1.99,0
7.376,-0.65,-1.87,0
7.396,-0.53,-1.87,0
7.417,-0.65,-1.87,0
7.436,-0.4,-1.87,0
7.456,-0.4,-1.87,0
7.476,-0.65,-1.87,0
7.496,-0.4,-1.87,0
7.516,-0.4,-1.75,0
7.536,-0.16,-1.75,0
7.557,-0.04,-1.63,0
7.576,-0.04,-1.63,0
7.596,-1.01,-2.24,0
7.616,-3.09,-3.95,0
7.636,-4.68,-5.66,0
7.656,-6.15,-8.22,0
7.677,-8.47,-9.69,0
7.696,-9.81,-10.3,0
7.716,-10.42,-10.54,0
7.736,-10.79,-10.91,0
7.736,-11.03,-11.03,0
7.756,-11.03,-11.16,0
7.777,-11.16,-11.16,0
7.797,-11.28,-11.16,0
7.817,-11.28,-11.16,0
7.837,-11.4,-11.28,0
7.857,-11.4,-11.28,0
7.876,-11.28,-11.28,0
7.897,-11.4,-11.28,0
7.917,-11.4,-11.28,0
7.937,-11.4,-11.28,0
7.956,-11.4,-11.28,0
7.976,-11.4,-11.28,0
7.996,-11.4,-11.28,1
8.017,-11.52,-11.4,1
8.036,-11.4,-11.28,1
8.057,-11.4,-11.4,1
8.077,-11.4,-11.4,1
8.096,-11.4,-11.4,1
8.116,-11.4,-11.4,1
8.136,-11.4,-11.28,1
8.136,-11.52,-11.4,1
8.156,-11.4,-11.16,1
8.177,-10.91,-10.67,1
8.197,-10.18,-9.93,1
8.217,-9.08,-8.59,1
8.237,-7.25,-7,1
8.257,-5.78,-6.02,1
8.277,-4.8,-5.29,1
8.296,-4.19,-4.8,1
8.317,-3.58,-4.31,1
8.336,-3.09,-3.95,1
8.357,-2.48,-3.58,1
8.379,-2.11,-3.34,1
8.397,-1.99,-3.09,0
8.417,-1.75,-2.85,0
8.437,-1.5,-2.72,0
8.457,-1.14,-2.6,0
8.476,-1.26,-2.48,0
8.497,-1.14,-2.36,0
8.516,-1.01,-2.24,0
8.537,-0.89,-2.24,0
8.558,-0.77,-2.24,0
8.577,-0.77,-2.11,0
8.597,-0.77,-1.99,0
8.617,-0.77,-1.99,0
8.638,-0.53,-1.99,0
8.658,-0.53,-1.87,0
8.677,-0.53,-1.87,0
8.698,-0.53,-1.87,0
8.717,-0.53,-1.87,0
8.737,-0.28,-1.75,0
8.757,-0.16,-1.63,0
8.778,-0.28,-1.63,0
8.797,-1.14,-2.24,0
8.817,-3.09,-4.07,0
8.837,-4.8,-6.02,0
8.857,-6.15,-8.59,0
8.877,-8.47,-9.81,0
8.898,-9.81,-10.3,0
8.917,-10.42,-10.67,0
8.938,-10.79,-10.79,0
8.939,-11.03,-11.03,0
8.959,-11.16,-11.03,0
8.979,-11.16,-11.16,0
8.999,-11.28,-11.16,0
9.02,-11.28,-11.28,0
9.039,-11.4,-11.16,0
9.059,-11.28,-11.28,0
9.079,-11.4,-11.28,0
9.099,-11.28,-11.28,0
9.119,-11.28,-11.28,0
9.139,-11.28,-11.28,0
9.159,-11.4,-11.4,0
9.179,-11.4,-11.28,1
9.199,-11.4,-11.28,1
9.219,-11.4,-11.4,1
9.239,-11.4,-11.4,1
9.259,-11.4,-11.28,1
9.279,-11.4,-11.28,1
9.299,-11.4,-11.4,1
9.319,-11.4,-11.4,1
9.339,-11.52,-11.4,1
9.359,-11.52,-11.4,1
9.379,-11.4,-11.28,1
9.399,-10.79,-10.54,1
9.419,-10.18,-9.08,1
9.439,-8.71,-7.37,1
9.459,-6.88,-6.27,1
9.48,-5.29,-5.54,1
9.499,-4.56,-4.8,1
9.52,-3.95,-4.31,1
9.539,-3.46,-3.95,1
9.559,-2.97,-3.46,1
9.579,-2.36,-3.34,1
9.599,-1.87,-3.09,0
9.619,-1.75,-2.85,0
9.639,-1.63,-2.72,0
9.659,-1.14,-2.48,0
9.68,-1.14,-2.36,0
9.699,-1.14,-2.24,0
9.719,-1.01,-2.24,0
9.739,-1.01,-2.11,0
9.739,-0.65,-2.11,0
9.76,-0.53,-1.99,0
9.779,-0.65,-1.87,0
9.799,-0.65,-1.75,0
9.819,-0.53,-1.87,0
9.839,-0.53,-1.75,0
9.859,-0.4,-1.75,0
9.88,-0.4,-1.87,0
9.9,-0.4,-1.75,0
9.92,-0.04,-1.63,0
9.94,-0.04,-1.63,0
9.959,-0.4,-1.5,0
9.98,-2.11,-3.34,0
9.999,-4.19,-5.05,0
10.02,-5.66,-7.73,0
10.04,-7.98,-9.57,0
10.059,-9.69,-10.18,0
10.08,-10.3,-10.67,0
10.1,-10.79,-10.79,0
10.119,-11.03,-11.03,0
10.14,-11.03,-11.16,0
10.14,-11.16,-11.16,0
10.16,-11.28,-11.16,0
10.181,-11.28,-11.28,0
10.201,-11.28,-11.28,0
10.221,-11.4,-11.28,0
10.24,-11.4,-11.28,0
10.26,-11.4,-11.28,0
10.28,-11.4,-11.28,0
10.301,-11.4,-11.4,0
10.321,-11.4,-11.28,0
10.34,-11.4,-11.28,1
10.361,-11.4,-11.4,1
10.381,-11.4,-11.4,1
10.401,-11.4,-11.4,1
10.42,-11.4,-11.4,1
10.441,-11.4,-11.4,1
10.461,-11.52,-11.4,1
10.481,-11.4,-11.4,1
10.501,-11.52,-11.4,1
10.521,-11.4,-11.28,1
10.541,-11.03,-10.79,1
10.541,-10.18,-9.69,1
10.561,-9.08,-7.98,1
10.581,-7.25,-6.63,1
10.602,-5.66,-5.78,1
10.621,-4.68,-5.05,1
10.641,-3.95,-4.44,1
10.661,-3.46,-4.07,1
10.681,-3.09,-3.7,1
10.701,-2.48,-3.21,1
10.721,-1.99,-3.09,0
10.741,-1.75,-2.97,0
10.761,-1.63,-2.72,0
10.781,-1.26,-2.6,0
10.802,-1.14,-2.36,0
10.821,-1.01,-2.11,0
10.841,-1.01,-2.11,0
10.861,-0.89,-2.11,0
10.881,-0.77,-1.99,0
10.902,-0.4,-1.99,0
10.921,-0.53,-1.87,0
10.941,-0.53,-1.75,0
10.942,-0.53,-1.75,0
10.962,-0.4,-1.75,0
10.983,-0.4,-1.75,0
11.003,-0.4,-1.75,0
11.023,-0.28,-1.75,0
11.043,-0.28,-1.5,0
11.063,0.09,-1.38,0
11.082,-0.04,-1.5,0
11.102,-1.5,-2.72,0
11.123,-3.7,-4.56,0
11.142,-5.29,-6.63,0
11.163,-7.25,-8.96,0
11.183,-9.32,-9.93,0
11.203,-10.18,-10.54,0
11.223,-10.67,-10.79,0
11.243,-11.03,-10.91,0
11.262,-11.16,-11.03,0
11.282,-11.16,-11.16,0
11.302,-11.28,-11.16,0
11.323,-11.28,-11.28,0
11.342,-11.4,-11.28,0
11.363,-11.4,-11.28,0
11.383,-11.4,-11.28,0
11.403,-11.4,-11.4,0
11.423,-11.4,-11.4,0
11.443,-11.4,-11.4,0
11.463,-11.4,-11.4,0
11.483,-11.4,-11.4,0
11.503,-11.4,-11.4,1
11.523,-11.4,-11.4,1
11.543,-11.4,-11.4,1
11.563,-11.4,-11.4,1
11.583,-11.4,-11.4,1
11.603,-11.52,-11.4,1
11.623,-11.52,-11.4,1
11.643,-11.52,-11.4,1
11.663,-11.52,-11.4,1
11.683,-11.03,-10.91,1
11.703,-10.42,-10.3,1
11.722,-9.45,-9.45,1
11.743,-7.61,-7.86,1
11.743,-6.02,-6.63,1
11.764,-4.8,-5.66,1
11.783,-4.07,-4.92,1
11.803,-3.46,-4.44,1
11.823,-3.09,-4.07,1
11.844,-2.6,-3.58,1
11.863,-1.99,-3.34,1
11.884,-1.75,-3.09,0
11.904,-1.63,-2.85,0
11.923,-1.38,-2.72,0
11.943,-1.14,-2.48,0
11.963,-1.01,-2.24,0
11.983,-1.01,-2.11,0
12.004,-1.01,-2.11,0
12.023,-0.89,-1.99,0
12.044,-0.53,-2.11,0
12.063,-0.53,-1.99,0
12.084,-0.77,-1.75,0
12.104,-0.65,-1.75,0
12.123,-0.53,-1.75,0
12.144,-0.53,-1.63,0
12.164,-0.28,-1.75,0
12.184,-0.4,-1.75,0
12.204,-0.4,-1.63,0
12.225,-0.04,-1.5,0
12.245,-0.16,-1.5,0
12.264,-1.26,-2.48,0
12.285,-3.34,-4.31,0
12.304,-5.05,-6.76,0
12.324,-6.76,-8.96,0
12.344,-9.08,-10.06,0
12.364,-10.18,-10.54,0
12.385,-10.67,-10.79,0
12.405,-10.91,-11.03,0
12.424,-11.03,-11.16,0
12.444,-11.16,-11.16,0
12.464,-11.28,-11.16,0
12.485,-11.28,-11.16,0
12.505,-11.28,-11.28,0
12.524,-11.4,-11.28,0
12.545,-11.4,-11.28,0
12.546,-11.4,-11.28,0
12.567,-11.4,-11.4,0
12.586,-11.4,-11.4,0
12.606,-11.4,-11.4,0
12.626,-11.4,-11.4,1
12.646,-11.4,-11.4,1
12.666,-11.4,-11.4,1
12.686,-11.4,-11.28,1
12.706,-11.4,-11.4,1
12.726,-11.52,-11.4,1
12.746,-11.52,-11.4,1
12.766,-11.52,-11.4,1
12.786,-11.52,-11.4,1
12.806,-11.52,-11.4,1
12.826,-11.16,-11.03,1
12.846,-10.54,-10.18,1
12.867,-9.69,-8.35,1
12.887,-7.73,-7,1
12.906,-6.15,-5.9,1
12.927,-4.92,-5.29,1
12.946,-4.19,-4.68,1
12.967,-3.58,-4.07,1
12.987,-3.09,-3.82,1
13.007,-2.72,-3.46,1
13.027,-2.11,-3.09,1
13.046,-1.75,-2.97,0
13.067,-1.63,-2.72,0
13.087,-1.38,-2.6,0
13.107,-1.14,-2.36,0
13.127,-1.01,-2.24,0
13.146,-0.89,-2.11,0
13.166,-0.89,-1.99,0
13.187,-0.89,-1.99,0
13.207,-0.53,-1.87,0
13.227,-0.4,-1.87,0
13.246,-0.53,-1.75,0
13.267,-0.53,-1.63,0
13.287,-0.53,-1.63,0
13.306,-0.4,-1.63,0
13.326,-0.28,-1.5,0
13.346,-0.28,-1.5,0
13.367,-0.16,-1.5,0
13.387,-0.16,-1.38,0
13.407,-0.04,-1.26,0
13.427,-0.89,-2.11,0
13.447,-3.09,-3.95,0
13.467,-4.8,-6.27,0
13.487,-6.39,-8.71,0
13.507,-8.71,-9.93,0
13.527,-9.93,-10.42,0
13.546,-10.67,-10.79,0
13.567,-10.91,-10.91,0
13.587,-11.03,-11.16,0
13.607,-11.03,-11.16,0
13.627,-11.28,-11.16,0
13.647,-11.4,-11.28,0
13.667,-11.4,-11.28,0
13.687,-11.4,-11.28,0
13.708,-11.4,-11.28,0
13.726,-11.4,-11.28,0
13.747,-11.4,-11.28,0
13.747,-11.4,-11.4,0
13.768,-11.4,-11.4,0
13.787,-11.52,-11.4,1
13.807,-11.4,-11.4,1
13.828,-11.4,-11.4,1
13.848,-11.4,-11.4,1
13.868,-11.52,-11.4,1
13.888,-11.52,-11.4,1
13.908,-11.4,-11.4,1
13.927,-11.52,-11.4,1
13.948,-11.4,-11.52,1
13.968,-11.52,-11.4,1
13.987,-11.28,-11.16,1
14.008,-10.67,-10.42,1
14.027,-9.81,-8.96,1
14.048,-8.22,-7.37,1
14.067,-6.51,-6.15,1
14.088,-5.17,-5.41,1
14.108,-4.31,-4.8,1
14.127,-3.7,-4.31,1
14.147,-3.21,-3.82,1
14.147,-2.85,-3.46,1
14.168,-2.24,-3.09,1
14.188,-1.75,-2.97,1
14.208,-1.63,-2.72,0
14.227,-1.38,-2.6,0
14.247,-1.26,-2.36,0
14.267,-0.89,-2.11,0
14.288,-0.89,-1.99,0
14.308,-0.89,-1.99,0
14.327,-0.89,-1.87,0
14.347,-0.65,-1.75,0
14.367,-0.4,-1.87,0
14.387,-0.4,-1.75,0
14.408,-0.53,-1.5,0
14.428,-0.53,-1.63,0
14.448,-0.4,-1.5,0
14.467,-0.28,-1.5,0
14.488,-0.16,-1.63,0
14.508,-0.28,-1.5,0
14.527,-0.28,-1.38,0
14.548,0.09,-1.38,0
14.548,-0.53,-1.63,0
14.569,-2.6,-3.58,0
14.589,-4.56,-5.54,0
14.609,-6.02,-8.22,0
14.629,-8.35,-9.69,0
14.648,-9.81,-10.3,0
14.669,-10.54,-10.67,0
14.688,-10.91,-10.91,0
14.709,-11.03,-11.03,0
14.729,-11.03,-11.16,0
14.749,-11.28,-11.28,0
14.769,-11.28,-11.28,0
14.788,-11.28,-11.28,0
14.808,-11.4,-11.28,0
14.828,-11.4,-11.28,0
14.848,-11.4,-11.4,0
14.869,-11.4,-11.4,0
14.889,-11.4,-11.4,0
14.909,-11.4,-11.4,0
14.928,-11.4,-11.4,1
14.949,-11.52,-11.4,1
14.97,-11.4,-11.4,1
14.99,-11.4,-11.4,1
15.01,-11.52,-11.4,1
15.03,-11.52,-11.4,1
15.049,-11.52,-11.4,1
15.069,-11.52,-11.4,1
15.09,-11.52,-11.52,1
15.109,-11.52,-11.4,1
15.13,-11.4,-11.16,1
15.15,-10.79,-10.67,1
15.17,-10.06,-9.45,1
15.19,-8.71,-7.61,1
15.209,-6.63,-6.39,1
15.229,-5.54,-5.66,1
15.25,-4.44,-4.92,1
15.27,-3.7,-4.44,1
15.289,-3.34,-3.95,1
15.309,-2.97,-3.58,1
15.329,-2.48,-3.21,1
15.35,-1.87,-2.97,1
15.35,-1.63,-2.72,0
15.371,-1.5,-2.72,0
15.391,-1.38,-2.48,0
15.411,-1.14,-2.24,0
15.431,-0.89,-2.11,0
15.45,-0.89,-1.99,0
15.47,-0.89,-1.87,0
15.49,-0.77,-1.87,0
15.51,-0.53,-1.99,0
15.53,-0.53,-1.75,0
15.55,-0.65,-1.63,0
15.571,-0.53,-1.63,0
15.59,-0.65,-1.63,0
15.61,-0.4,-1.5,0
15.631,-0.28,-1.63,0
15.65,-0.4,-1.5,0
15.671,-0.28,-1.38,0
15.69,-0.04,-1.26,0
15.71,-0.28,-1.26,0
15.73,-2.24,-3.21,0
15.75,-4.19,-5.05,0
15.77,-5.66,-7.98,0
15.79,-7.98,-9.57,0
15.811,-9.81,-10.3,0
15.831,-10.42,-10.67,0
15.851,-10.79,-10.91,0
15.87,-11.03,-11.03,0
15.89,-11.03,-11.16,0
15.911,-11.28,-11.16,0
15.93,-11.28,-11.28,0
15.95,-11.28,-11.28,0
15.971,-11.28,-11.28,0
15.99,-11.4,-11.28,0
16.01,-11.4,-11.4,0
16.03,-11.4,-11.4,0
16.051,-11.4,-11.4,0
16.07,-11.4,-11.4,0
16.091,-11.4,-11.4,0
16.11,-11.4,-11.4,1
16.13,-11.4,-11.4,1
16.15,-11.4,-11.4,1
16.15,-11.4,-11.4,1
16.171,-11.4,-11.4,1
16.19,-11.4,-11.4,1
16.21,-11.52,-11.4,1
16.231,-11.52,-11.4,1
16.251,-11.52,-11.4,1
16.27,-11.4,-11.28,1
16.291,-10.91,-10.79,1
16.311,-10.18,-9.57,1
16.331,-8.96,-7.86,1
16.35,-6.88,-6.51,1
16.371,-5.66,-5.66,1
16.391,-4.56,-5.05,1
16.411,-3.82,-4.56,1
16.431,-3.34,-3.95,1
16.451,-2.97,-3.7,1
16.471,-2.6,-3.21,1
16.491,-2.11,-2.97,1
16.511,-1.63,-2.85,0
16.531,-1.5,-2.72,0
16.551,-1.5,-2.48,0
16.551,-1.26,-2.36,0
16.572,-1.01,-2.11,0
16.592,-0.89,-1.99,0
16.612,-0.89,-1.99,0
16.632,-0.89,-1.99,0
16.652,-0.53,-1.87,0
16.671,-0.53,-1.75,0
16.692,-0.53,-1.75,0
16.711,-0.65,-1.63,0
16.731,-0.65,-1.63,0
16.752,-0.4,-1.75,0
16.772,-0.28,-1.63,0
16.791,-0.4,-1.63,0
16.812,-0.16,-1.63,0
16.832,-0.04,-1.38,0
16.852,-0.16,-1.38,0
16.871,-1.87,-3.09,0
16.892,-3.95,-4.92,0
16.912,-5.41,-7.61,0
16.932,-7.61,-9.45,0
16.952,-9.69,-10.18,0
16.952,-10.3,-10.67,0
16.972,-10.79,-10.79,0
16.992,-11.03,-10.91,0
17.012,-11.03,-11.16,0
17.032,-11.16,-11.16,0
17.052,-11.28,-11.16,0
17.072,-11.4,-11.28,0
17.092,-11.28,-11.28,0
17.112,-11.4,-11.4,0
17.132,-11.4,-11.28,0
17.153,-11.4,-11.28,0
17.172,-11.4,-11.28,0
17.192,-11.4,-11.28,0
17.212,-11.4,-11.4,0
17.232,-11.4,-11.4,1
17.252,-11.4,-11.4,1
17.272,-11.4,-11.4,1
17.292,-11.4,-11.4,1
17.312,-11.4,-11.4,1
17.332,-11.4,-11.4,1
17.352,-11.4,-11.4,1
17.372,-11.4,-11.4,1
17.392,-11.52,-11.4,1
17.412,-11.4,-11.28,1
17.432,-11.03,-10.79,1
17.452,-10.3,-9.69,1
17.472,-9.2,-7.98,1
17.492,-7.12,-6.63,1
17.512,-5.66,-5.66,1
17.532,-4.68,-5.05,1
17.552,-3.95,-4.56,1
17.572,-3.46,-4.07,1
17.592,-3.09,-3.7,1
17.612,-2.6,-3.34,1
17.632,-2.11,-3.09,1
17.652,-1.75,-2.85,0
17.672,-1.5,-2.72,0
17.692,-1.38,-2.6,0
17.713,-1.26,-2.36,0
17.732,-0.89,-2.24,0
17.752,-0.89,-2.11,0
17.773,-1.01,-1.99,0
17.793,-0.89,-2.11,0
17.813,-0.65,-1.99,0
17.833,-0.53,-1.87,0
17.853,-0.53,-1.75,0
17.873,-0.65,-1.75,0
17.893,-0.77,-1.63,0
17.912,-0.53,-1.5,0
17.933,-0.4,-1.75,0
17.954,-0.28,-1.63,0
17.974,-0.4,-1.5,0
17.993,-0.16,-1.38,0
18.012,-0.16,-1.5,0
18.033,-1.63,-2.72,0
18.053,-3.7,-4.56,0
18.073,-5.41,-7,0
18.093,-7.37,-9.08,0
18.113,-9.45,-10.06,0
18.133,-10.3,-10.54,0
18.153,-10.67,-10.79,0
18.153,-10.91,-11.03,0
18.173,-11.03,-11.16,0
18.194,-11.16,-11.16,0
18.216,-11.28,-11.16,0
18.233,-11.28,-11.28,0
18.254,-11.28,-11.28,0
18.274,-11.4,-11.28,0
18.293,-11.4,-11.28,0
18.313,-11.4,-11.4,0
18.333,-11.4,-11.4,0
18.353,-11.4,-11.28,0
18.373,-11.4,-11.4,0
18.394,-11.4,-11.4,1
18.414,-11.4,-11.28,1
18.433,-11.4,-11.4,1
18.454,-11.4,-11.4,1
18.473,-11.4,-11.4,1
18.494,-11.4,-11.4,1
18.514,-11.4,-11.4,1
18.534,-11.52,-11.4,1
18.553,-11.52,-11.4,1
18.574,-11.52,-11.4,1
18.593,-11.03,-10.91,1
18.614,-10.42,-9.93,1
18.634,-9.45,-8.35,1
18.654,-7.49,-6.76,1
18.673,-5.9,-5.9,1
18.694,-4.92,-5.17,1
18.714,-4.07,-4.68,1
18.734,-3.46,-4.19,1
18.754,-3.21,-3.7,1
18.774,-2.6,-3.34,1
18.794,-2.24,-3.09,1
18.814,-1.75,-2.85,0
18.834,-1.5,-2.72,0
18.853,-1.5,-2.6,0
18.874,-1.38,-2.36,0
18.894,-1.14,-2.24,0
18.914,-1.01,-2.24,0
18.934,-1.01,-2.11,0
18.954,-0.89,-1.99,0
18.954,-0.77,-2.11,0
18.975,-0.65,-1.87,0
18.994,-0.53,-1.75,0
19.014,-0.65,-1.75,0
19.034,-0.65,-1.75,0
19.054,-0.77,-1.63,0
19.074,-0.4,-1.75,0
19.095,-0.28,-1.75,0
19.114,-0.4,-1.63,0
19.134,-0.28,-1.5,0
19.154,-0.28,-1.5,0
19.174,-1.26,-2.48,0
19.194,-3.46,-4.44,0
19.217,-5.17,-6.88,0
19.234,-6.88,-9.08,0
19.254,-9.08,-9.93,0
19.274,-10.18,-10.42,0
19.294,-10.67,-10.79,0
19.314,-10.91,-10.91,0
19.334,-11.03,-11.16,0
19.354,-11.16,-11.16,0
19.354,-11.28,-11.28,0
19.374,-11.28,-11.28,0
19.394,-11.28,-11.16,0
19.414,-11.4,-11.28,0
19.434,-11.4,-11.28,0
19.454,-11.4,-11.28,0
19.474,-11.4,-11.28,0
19.494,-11.4,-11.28,0
19.514,-11.4,-11.4,0
19.534,-11.4,-11.4,1
19.554,-11.4,-11.4,1
19.574,-11.4,-11.4,1
19.594,-11.4,-11.4,1
19.614,-11.4,-11.4,1
19.634,-11.4,-11.4,1
19.654,-11.4,-11.4,1
19.674,-11.52,-11.4,1
19.694,-11.52,-11.4,1
19.714,-11.52,-11.4,1
19.734,-11.16,-11.03,1
19.754,-10.54,-10.3,1
19.754,-9.57,-8.47,1
19.775,-7.73,-7,1
19.795,-6.15,-6.02,1
19.815,-4.92,-5.29,1
19.835,-4.19,-4.8,1
19.855,-3.58,-4.19,1
19.875,-3.09,-3.82,1
19.895,-2.72,-3.46,1
19.915,-2.48,-3.09,1
19.935,-1.75,-2.97,0
19.955,-1.63,-2.85,0
19.975,-1.5,-2.6,0
19.995,-1.38,-2.36,0
20.015,-1.14,-2.24,0
20.035,-1.01,-2.11,0
20.055,-0.89,-1.99,0
20.075,-0.89,-2.11,0
20.095,-0.77,-1.99,0
20.115,-0.53,-1.87,0
20.135,-0.4,-1.87,0
20.155,-0.65,-1.63,0
20.175,-0.65,-1.63,0
20.195,-0.65,-1.75,0
20.215,-0.4,-1.75,0
20.235,-0.28,-1.63,0
20.255,-0.28,-1.75,0
20.275,-0.28,-1.5,0
20.295,-0.16,-1.5,0
20.315,-0.89,-2.24,0
20.335,-3.09,-4.07,0
20.355,-4.8,-6.39,0
20.375,-6.51,-8.83,0
20.395,-8.83,-9.93,0
20.415,-10.06,-10.42,0
20.435,-10.67,-10.79,0
20.455,-10.91,-10.91,0
20.475,-10.91,-11.03,0
20.495,-11.16,-11.16,0
20.515,-11.28,-11.28,0
20.536,-11.28,-11.28,0
20.556,-11.28,-11.28,0
20.576,-11.4,-11.28,0
20.596,-11.4,-11.28,0
20.616,-11.4,-11.28,0
20.636,-11.4,-11.4,0
20.656,-11.4,-11.4,0
20.676,-11.4,-11.4,0
20.696,-11.4,-11.4,1
20.716,-11.4,-11.4,1
20.736,-11.4,-11.4,1
20.756,-11.52,-11.4,1
20.776,-11.4,-11.4,1
20.796,-11.4,-11.4,1
20.816,-11.4,-11.4,1
20.836,-11.52,-11.4,1
20.856,-11.52,-11.28,1
20.876,-11.4,-11.4,1
20.896,-11.28,-11.03,1
20.916,-10.54,-10.42,1
20.936,-9.81,-8.71,1
20.956,-8.1,-7.25,1
20.976,-6.27,-6.15,1
20.997,-5.05,-5.29,1
21.016,-4.31,-4.8,1
21.036,-3.7,-4.31,1
21.057,-3.21,-3.82,1
21.076,-2.72,-3.46,1
21.097,-2.36,-3.21,1
21.117,-1.87,-2.97,0
21.137,-1.63,-2.72,0
21.157,-1.38,-2.72,0
21.176,-1.38,-2.48,0
21.197,-1.14,-2.24,0
21.217,-0.89,-2.24,0
21.237,-1.01,-2.11,0
21.257,-0.89,-1.99,0
21.277,-0.77,-2.11,0
21.296,-0.53,-1.99,0
21.317,-0.53,-1.75,0
21.336,-0.77,-1.75,0
21.356,-0.65,-1.75,0
21.377,-0.77,-1.75,0
21.397,-0.4,-1.75,0
21.417,-0.28,-1.75,0
21.437,-0.4,-1.63,0
21.457,-0.4,-1.5,0
21.477,-0.16,-1.5,0
21.497,-0.77,-1.87,0
21.517,-2.85,-3.82,0
21.536,-4.8,-5.78,0
21.557,-6.27,-8.59,0
21.577,-8.59,-9.81,0
21.597,-10.06,-10.3,0
21.617,-10.54,-10.67,0
21.637,-10.91,-10.91,0
21.657,-11.03,-11.03,0
21.677,-11.16,-11.16,0
21.697,-11.28,-11.28,0
21.717,-11.28,-11.16,0
21.736,-11.28,-11.28,0
21.757,-11.4,-11.28,0
21.777,-11.4,-11.28,0
21.797,-11.4,-11.28,0
21.817,-11.4,-11.4,0
21.838,-11.4,-11.28,0
21.858,-11.4,-11.28,0
21.878,-11.4,-11.28,0
21.897,-11.4,-11.4,1
21.917,-11.4,-11.4,1
21.938,-11.4,-11.4,1
21.958,-11.4,-11.4,1
21.977,-11.4,-11.4,1
21.997,-11.4,-11.4,1
22.018,-11.52,-11.4,1
22.037,-11.4,-11.4,1
22.057,-11.52,-11.4,1
22.078,-11.28,-11.16,1
22.097,-10.79,-10.54,1
22.118,-10.06,-8.96,1
22.138,-8.71,-7.37,1
22.158,-6.63,-6.15,1
22.178,-5.29,-5.54,1
22.198,-4.56,-4.92,1
22.218,-3.82,-4.31,1
22.238,-3.34,-3.95,1
22.258,-2.85,-3.58,1
22.278,-2.6,-3.21,1
22.298,-1.99,-2.97,0
22.318,-1.75,-2.85,0
22.338,-1.63,-2.6,0
22.358,-1.5,-2.48,0
22.378,-1.26,-2.36,0
22.398,-1.01,-2.24,0
22.418,-1.01,-2.11,0
22.438,-1.01,-2.11,0
22.458,-0.89,-2.11,0
22.478,-0.65,-1.87,0
22.498,-0.53,-1.87,0
22.518,-0.65,-1.75,0
22.538,-0.65,-1.63,0
22.558,-0.77,-1.75,0
22.579,-0.53,-1.75,0
22.598,-0.4,-1.75,0
22.619,-0.4,-1.63,0
22.639,-0.4,-1.63,0
22.658,-0.28,-1.5,0
22.678,-0.53,-1.87,0
22.699,-2.6,-3.7,0
22.719,-4.56,-5.29,0
22.738,-6.02,-7.86,0
22.759,-8.47,-9.57,0
22.779,-9.93,-10.3,0
22.799,-10.54,-10.67,0
22.819,-10.79,-10.91,0
22.839,-10.91,-11.03,0
22.859,-11.03,-11.16,0
22.879,-11.16,-11.28,0
22.898,-11.28,-11.28,0
22.919,-11.28,-11.28,0
22.938,-11.4,-11.28,0
22.959,-11.4,-11.28,0
22.959,-11.4,-11.28,0
22.979,-11.4,-11.28,0
22.999,-11.4,-11.4,0
23.02,-11.4,-11.4,0
23.04,-11.4,-11.4,0
23.059,-11.4,-11.28,1
23.079,-11.4,-11.4,1
23.1,-11.4,-11.4,1
23.119,-11.52,-11.4,1
23.139,-11.4,-11.4,1
23.159,-11.4,-11.4,1
23.179,-11.52,-11.4,1
23.2,-11.4,-11.4,1
23.219,-11.52,-11.4,1
23.239,-11.28,-11.28,1
23.259,-10.79,-10.54,1
23.279,-10.06,-9.2,1
23.3,-8.71,-7.49,1
23.319,-6.63,-6.39,1
23.34,-5.41,-5.66,1
23.36,-4.44,-5.05,1
23.36,-3.82,-4.44,1
23.38,-3.21,-3.95,1
23.4,-2.85,-3.58,1
23.42,-2.48,-3.21,1
23.44,-1.99,-3.09,0
23.46,-1.75,-2.85,0
23.48,-1.75,-2.6,0
23.5,-1.38,-2.48,0
23.52,-1.26,-2.36,0
23.54,-1.14,-2.11,0
23.561,-1.14,-2.11,0
23.58,-1.01,-2.11,0
23.6,-0.89,-1.99,0
23.62,-0.53,-1.99,0
23.64,-0.53,-1.87,0
23.66,-0.77,-1.75,0
23.68,-0.65,-1.63,0
23.7,-0.65,-1.75,0
23.72,-0.4,-1.75,0
23.74,-0.4,-1.63,0
23.76,-0.4,-1.63,0
23.76,-0.28,-1.63,0
23.78,-0.28,-1.38,0
23.8,-0.16,-1.5,0
23.821,-2.11,-3.34,0
23.84,-4.19,-5.17,0
23.86,-5.66,-7.98,0
23.88,-7.98,-9.57,0
23.9,-9.81,-10.3,0
23.922,-10.42,-10.67,0
23.94,-10.79,-10.91,0
23.96,-10.91,-11.03,0
23.98,-11.03,-11.16,0
24.001,-11.16,-11.16,0
24.021,-11.28,-11.16,0
24.04,-11.28,-11.28,0
24.06,-11.4,-11.28,0
24.081,-11.4,-11.28,0
24.101,-11.4,-11.28,0
24.12,-11.4,-11.4,0
24.141,-11.4,-11.28,0
24.16,-11.4,-11.28,0
24.18,-11.4,-11.28,0
24.2,-11.4,-11.28,1
24.221,-11.4,-11.4,1
24.24,-11.4,-11.4,1
24.261,-11.4,-11.4,1
24.28,-11.4,-11.4,1
24.301,-11.4,-11.4,1
24.321,-11.4,-11.4,1
24.34,-11.52,-11.4,1
24.361,-11.52,-11.4,1
24.381,-11.4,-11.28,1
24.401,-10.91,-10.79,1
24.421,-10.18,-9.57,1
24.441,-8.96,-7.73,1
24.46,-6.88,-6.51,1
24.481,-5.54,-5.66,1
24.501,-4.68,-5.05,1
24.521,-3.95,-4.56,1
24.541,-3.34,-4.07,1
24.56,-3.09,-3.58,1
24.56,-2.6,-3.34,1
24.581,-1.99,-3.09,0
24.601,-1.75,-2.85,0
24.621,-1.75,-2.72,0
24.64,-1.38,-2.48,0
24.66,-1.26,-2.24,0
24.681,-0.89,-2.11,0
24.701,-1.14,-2.11,0
24.72,-1.26,-1.99,0
24.741,-0.77,-2.11,0
24.761,-0.53,-1.99,0
24.781,-0.53,-1.75,0
24.801,-0.77,-1.75,0
24.82,-0.65,-1.75,0
24.84,-0.65,-1.75,0
24.861,-0.53,-1.75,0
24.88,-0.4,-1.87,0
24.901,-0.77,-1.75,0
24.92,-0.53,-1.63,0
24.941,-0.16,-1.63,0
24.961,-0.28,-1.63,0
24.981,-1.99,-3.09,0
25.001,-4.07,-4.92,0
25.021,-5.54,-7.12,0
25.041,-7.73,-9.32,0
25.061,-9.57,-10.18,0
25.081,-10.3,-10.54,0
25.101,-10.79,-10.91,0
25.121,-11.03,-11.03,0
25.141,-11.03,-11.03,0
25.161,-11.16,-11.16,0
25.181,-11.4,-11.16,0
25.201,-11.4,-11.28,0
25.221,-11.28,-11.28,0
25.241,-11.4,-11.28,0
25.261,-11.4,-11.28,0
25.281,-11.4,-11.28,0
25.301,-11.4,-11.4,0
25.321,-11.4,-11.28,0
25.341,-11.4,-11.28,0
25.361,-11.4,-11.4,0
25.361,-11.4,-11.4,1
25.382,-11.4,-11.28,1
25.402,-11.4,-11.4,1
25.422,-11.4,-11.4,1
25.441,-11.4,-11.4,1
25.461,-11.4,-11.28,1
25.482,-11.4,-11.4,1
25.501,-11.52,-11.4,1
25.522,-11.4,-11.28,1
25.542,-10.91,-10.79,1
25.561,-10.3,-9.69,1
25.581,-9.2,-7.98,1
25.601,-7.37,-6.63,1
25.621,-5.78,-5.78,1
25.642,-4.8,-5.17,1
25.662,-3.95,-4.56,1
25.682,-3.58,-4.07,1
25.702,-3.21,-3.7,1
25.721,-2.72,-3.34,1
25.742,-2.24,-3.09,0
25.762,-1.63,-2.97,0
25.762,-1.75,-2.72,0
25.783,-1.63,-2.48,0
25.803,-1.26,-2.36,0
25.822,-1.01,-2.24,0
25.842,-1.01,-2.24,0
25.863,-1.14,-2.11,0
25.882,-0.89,-2.24,0
25.902,-0.77,-1.99,0
25.922,-0.53,-1.87,0
25.942,-0.65,-1.99,0
25.962,-0.89,-1.87,0
25.982,-0.77,-1.75,0
26.002,-0.53,-1.87,0
26.022,-0.4,-1.87,0
26.042,-0.65,-1.75,0
26.062,-0.53,-1.63,0
26.082,-0.28,-1.63,0
26.102,-0.28,-1.5,0
26.122,-1.5,-2.85,0
26.142,-3.58,-4.68,0
26.163,-5.17,-7.12,0
26.183,-6.63,-9.2,0
26.203,-8.96,-10.18,0
26.223,-10.06,-10.54,0
26.243,-10.67,-10.79,0
26.263,-10.91,-10.91,0
26.283,-11.03,-11.16,0
26.304,-11.03,-11.28,0
26.323,-11.28,-11.28,0
26.343,-11.28,-11.28,0
26.363,-11.4,-11.28,0
26.383,-11.4,-11.28,0
26.403,-11.4,-11.4,0
26.423,-11.4,-11.28,0
26.444,-11.28,-11.28,0
26.464,-11.4,-11.28,0
26.483,-11.4,-11.28,0
26.503,-11.4,-11.4,0
26.523,-11.4,-11.4,1
26.543,-11.4,-11.28,1
26.563,-11.4,-11.4,1
26.583,,,
26.604,-11.4,-11.4,1
26.623,-11.4,-11.4,1
26.644,-11.4,-11.4,1
26.664,-11.52,-11.4,1
26.684,-11.52,-11.4,1
26.705,-11.52,-11.4,1
26.726,,,
26.743,-11.03,-10.91,1
26.764,-10.42,-10.18,1
26.784,-9.32,-8.47,1
26.803,-7.49,-6.88,1
26.824,-5.78,-6.02,1
26.843,-4.92,-5.29,1
26.865,-4.07,-4.68,1
26.885,-3.58,-4.19,1
26.907,-3.34,-3.7,1
26.93,-2.72,-3.46,1
26.951,-2.11,-3.21,1
26.972,-1.75,-2.97,0
26.996,-1.75,-2.85,0
27.017,-1.5,-2.6,0
27.037,-1.26,-2.36,0
27.062,-1.01,-2.24,0
27.083,-0.89,-2.24,0
27.103,,,
27.113,-1.14,-2.24,0
27.133,-0.89,-2.11,0
27.152,-0.65,-2.11,0
27.173,,,
27.192,-0.53,-1.99,0
27.212,-0.65,-1.87,0
27.232,-0.77,-1.87,0
27.252,-0.77,-1.87,0
27.272,-0.65,-1.87,0
27.293,-0.28,-1.87,0
27.312,-0.53,-1.87,0
27.332,-0.53,-1.75,0
27.352,-0.28,-1.63,0
27.373,-0.28,-1.63,0
27.389,-1.26,-2.72,0
27.41,-3.46,-4.56,0
27.431,,,
27.449,-5.17,-6.02,0
27.47,-6.76,-7.73,0
27.49,-9.08,-9.57,0
27.51,-10.18,-10.3,0
27.53,-10.67,-10.67,0
27.549,-10.91,-10.91,0
27.569,-11.03,-11.03,0
27.594,-11.16,-11.16,0
27.619,-11.28,-11.16,0
27.639,,,
27.649,-11.28,-11.16,0
27.67,-11.4,-11.28,0
27.689,-11.4,-11.28,0
27.713,-11.4,-11.28,0
27.737,-11.4,-11.28,0
27.762,-11.4,-11.28,0
27.787,-11.4,-11.28,0
27.808,,,
27.828,-11.4,-11.28,0
27.849,-11.4,-11.28,0
27.869,-11.4,-11.28,1
27.888,-11.4,-11.4,1
27.909,-11.4,-11.28,1
27.929,-11.52,-11.4,1
27.954,-11.4,-11.4,1
27.975,,,
27.988,-11.4,-11.4,1
28.008,-11.4,-11.4,1
28.028,-11.52,-11.4,1
28.05,-11.52,-11.4,1
28.073,-11.03,-10.91,1
28.098,-10.42,-10.18,1
28.118,,,
28.129,-9.57,-8.35,1
28.148,-7.86,-7,1
28.169,-6.15,-6.02,1
28.188,,,
28.213,-5.05,-5.29,1
28.233,-4.07,-4.68,1
28.254,-3.58,-4.07,1
28.273,-3.21,-3.82,1
28.294,-2.85,-3.34,1
28.314,-2.24,-3.21,0
28.334,-1.75,-2.97,0
28.354,-1.63,-2.72,0
28.374,-1.75,-2.6,0
28.393,-1.26,-2.48,0
28.413,-1.14,-2.24,0
28.433,-0.89,-2.24,0
28.453,-1.14,-2.24,0
28.473,-1.14,-2.11,0
28.493,-0.77,-1.99,0
28.516,-0.53,-1.99,0
28.537,-0.4,-1.87,0
28.557,-0.89,-1.75,0
28.582,-0.65,-1.87,0
28.601,-0.77,-1.87,0
28.622,,,
28.642,-0.4,-1.75,0
28.663,-0.4,-1.75,0
28.682,-0.65,-1.63,0
28.703,-0.28,-1.5,0
28.723,-0.28,-1.75,0
28.743,-1.14,-2.48,0
28.763,-3.34,-4.31,0
28.782,-5.05,-5.78,0
28.803,-6.51,-7.86,0
28.822,,,
28.843,-9.08,-9.69,0
28.863,-10.06,-10.3,0
28.883,-10.67,-10.67,0
28.903,-10.91,-10.91,0
28.923,-11.03,-11.03,0
28.944,-11.16,-11.16,0
28.963,-11.28,-11.28,0
28.986,-11.28,-11.28,0
29.011,-11.28,-11.28,0
29.032,,,
29.053,-11.4,-11.28,0
29.072,-11.4,-11.28,0
29.093,-11.4,-11.28,0
29.112,-11.4,-11.4,0
29.133,-11.4,-11.28,0
29.154,-11.4,-11.28,0
29.179,-11.4,-11.28,0
29.2,,,
29.214,-11.4,-11.4,0
29.233,-11.4,-11.4,1
29.253,-11.4,-11.4,1
29.274,-11.4,-11.4,1
29.298,-11.4,-11.4,1
29.323,-11.4,-11.4,1
29.343,,,
29.353,-11.4,-11.4,1
29.373,-11.4,-11.4,1
29.393,-11.52,-11.4,1
29.417,-11.28,-11.03,1
29.442,-10.54,-10.18,1
29.466,-9.69,-8.59,1
29.487,-7.98,-7.12,1
29.507,,,
29.522,-6.39,-6.15,1
29.542,-5.17,-5.29,1
29.562,-4.44,-4.68,1
29.582,-3.58,-4.19,1
29.602,-3.21,-3.7,1
29.624,-2.97,-3.46,0
29.642,,,
29.663,-2.24,-3.34,0
29.682,-1.87,-2.97,0
29.702,-1.63,-2.72,0
29.722,-1.5,-2.6,0
29.742,-1.5,-2.48,0
29.762,-1.38,-2.36,0
29.782,-0.89,-2.36,0
29.802,-1.14,-2.24,0
29.822,-1.26,-2.11,0
29.843,-0.77,-2.11,0
29.863,-0.65,-1.99,0
29.884,-0.65,-1.87,0
29.904,-0.77,-1.99,0
29.924,-0.89,-1.99,0
29.946,-0.89,-1.87,0
29.97,-0.53,-1.87,0
29.99,-0.4,-1.75,0
30.011,-0.65,-1.63,0
30.035,-0.4,-1.63,0
30.056,-0.4,-1.75,0
30.077,-0.89,-2.24,0
30.101,-2.97,-4.19,0
30.122,-4.8,-6.02,0
30.142,,,
30.143,,,
30.164,-6.15,-8.71,0
30.183,-8.59,-9.93,0
30.203,-9.93,-10.54,0
30.223,-10.54,-10.79,0
30.244,-10.79,-10.91,0
30.264,-11.03,-11.03,0
30.284,-11.03,-11.16,0
30.306,-11.16,-11.16,0
30.331,-11.28,-11.28,0
30.355,-11.28,-11.16,0
30.375,,,
30.384,-11.28,-11.28,0
30.404,-11.28,-11.28,0
30.424,-11.4,-11.28,0
30.449,-11.4,-11.28,0
30.474,-11.4,-11.28,0
30.498,-11.4,-11.4,0
30.523,-11.52,-11.28,0
30.543,,,
30.544,,,
30.564,-11.4,-11.28,0
30.584,-11.4,-11.4,1
30.604,-11.4,-11.28,1
30.624,-11.4,-11.4,1
30.644,-11.4,-11.4,1
30.666,-11.4,-11.4,1
30.687,,,
30.705,-11.4,-11.4,1
30.725,-11.52,-11.4,1
30.744,-11.4,-11.4,1
30.764,-11.28,-11.16,1
30.785,-10.67,-10.42,1
30.81,-9.93,-8.83,1
30.83,-8.35,-7.49,1
30.85,,,
30.864,-6.76,-6.39,1
30.884,-5.54,-5.41,1
30.905,-4.44,-4.8,1
30.925,-3.7,-4.31,1
30.945,-3.21,-3.82,1
30.965,-2.97,-3.58,1
30.985,,,
31.005,-2.48,-3.34,0
31.024,-2.11,-2.97,0
31.045,-1.5,-2.85,0
31.066,-1.63,-2.6,0
31.086,-1.63,-2.48,0
31.105,-1.26,-2.24,0
31.125,-1.14,-2.36,0
31.146,-0.89,-2.11,0
31.165,-1.01,-2.11,0
31.185,-1.01,-1.99,0
31.206,-0.77,-1.87,0
31.225,-0.53,-1.87,0
31.248,-0.4,-1.87,0
31.269,-0.89,-1.87,0
31.289,-0.77,-1.87,0
31.313,-0.65,-1.87,0
31.334,-0.28,-1.75,0
31.354,-0.53,-1.63,0
31.379,-0.4,-1.63,0
31.399,-0.28,-1.63,0
31.42,,,
31.425,-0.65,-1.75,0
31.445,-2.48,-3.7,0
31.466,-4.44,-5.54,0
31.485,,,
31.506,-5.78,-8.22,0
31.526,-8.1,-9.81,0
31.546,-9.69,-10.42,0
31.566,-10.54,-10.67,0
31.586,-10.79,-10.91,0
31.605,-10.91,-11.03,0
31.626,-11.03,-11.16,0
31.649,-11.28,-11.28,0
31.674,-11.28,-11.28,0
31.698,-11.28,-11.28,0
31.718,,,
31.726,-11.28,-11.28,0
31.75,-11.4,-11.28,0
31.768,-11.4,-11.28,0
31.792,-11.4,-11.28,0
31.817,-11.4,-11.28,0
31.842,-11.4,-11.4,0
31.867,-11.4,-11.28,0
31.887,,,
31.907,-11.4,-11.4,0
31.927,-11.4,-11.28,0
31.947,-11.4,-11.28,1
31.967,-11.4,-11.4,1
31.987,-11.4,-11.4,1
32.01,-11.4,-11.4,1
32.033,-11.4,-11.4,1
32.055,,,
32.067,-11.4,-11.4,1
32.087,-11.4,-11.4,1
32.107,-11.4,-11.28,1
32.129,-10.91,-10.67,1
32.154,-10.06,-9.2,1
32.174,,,
32.187,-9.08,-7.61,1
32.207,-7.12,-6.39,1
32.227,-5.78,-5.54,1
32.247,-4.68,-4.92,1
32.267,-4.07,-4.31,1
32.288,-3.21,-3.82,1
32.308,,,
32.328,-2.97,-3.58,1
32.348,-2.85,-3.34,0
32.368,-2.11,-3.09,0
32.388,-1.75,-2.97,0
32.408,-1.5,-2.6,0
32.428,-1.5,-2.48,0
32.448,-1.5,-2.36,0
32.468,-1.14,-2.24,0
32.488,-0.89,-2.24,0
32.507,-0.89,-2.24,0
32.528,-1.01,-2.11,0
32.548,-0.77,-1.99,0
32.568,,,
32.588,-0.77,-1.99,0
32.608,-0.53,-1.87,0
32.627,-0.77,-1.87,0
32.648,-1.01,-2.11,0
32.668,-0.65,-1.87,0
32.688,-0.65,-1.75,0
32.708,-0.28,-1.75,0
32.728,-0.53,-1.75,0
32.748,-0.65,-1.63,0
32.768,-0.4,-1.87,0
32.789,-2.11,-3.46,0
32.809,-4.31,-5.17,0
32.832,-5.66,-7.86,0
32.854,-7.86,-9.69,0
32.874,-9.69,-10.3,0
32.898,-10.42,-10.67,0
32.923,-10.67,-10.91,0
32.948,-11.03,-11.03,0
32.968,,,
32.968,,,
32.988,-11.03,-11.03,0
33.008,-11.28,-11.16,0
33.029,-11.28,-11.16,0
33.048,-11.4,-11.28,0
33.068,-11.28,-11.28,0
33.091,-11.4,-11.28,0
33.112,,,
33.131,-11.4,-11.28,0
33.152,-11.28,-11.28,0
33.171,-11.28,-11.28,0
33.191,-11.4,-11.28,0
33.211,-11.4,-11.4,0
33.235,-11.4,-11.28,0
33.259,-11.4,-11.28,0
33.279,,,
33.291,-11.4,-11.4,1
33.311,-11.4,-11.4,1
33.331,-11.4,-11.4,1
33.353,-11.4,-11.4,1
33.378,-11.52,-11.4,1
33.402,-11.52,-11.4,1
33.423,,,
33.431,-11.4,-11.4,1
33.451,,,
33.472,-11.4,-11.28,1
33.492,-10.91,-10.79,1
33.497,-10.18,-9.45,1
33.522,-9.08,-7.86,1
33.541,-7,-6.63,1
33.562,,,
33.577,-5.78,-5.66,1
33.598,-5.05,-4.92,1
33.617,-4.07,-4.44,1
33.637,-3.34,-3.95,1
33.657,-2.85,-3.58,1
33.677,-2.6,-3.34,0
33.697,,,
33.718,-2.36,-3.21,0
33.737,-1.87,-2.85,0
33.757,-1.38,-2.6,0
33.777,-1.26,-2.6,0
33.797,-1.5,-2.36,0
33.818,-1.26,-2.24,0
33.838,-1.14,-2.36,0
33.858,-0.89,-2.24,0
33.877,-1.01,-1.99,0
33.897,-1.01,-1.99,0
33.918,-0.77,-1.87,0
33.937,-0.65,-1.87,0
33.957,,,
33.978,-0.53,-1.99,0
33.997,-0.77,-1.99,0
34.017,-1.01,-1.87,0
34.038,-0.65,-1.75,0
34.058,-0.28,-1.75,0
34.077,-0.4,-1.63,0
34.097,-0.53,-1.63,0
34.117,-0.4,-1.87,0
34.138,-1.87,-3.09,0
34.157,-3.95,-4.8,0
34.177,-5.41,-6.88,0
34.197,-7.49,-9.32,0
34.221,-9.57,-10.18,0
34.242,-10.42,-10.67,0
34.266,-10.67,-10.91,0
34.291,-10.91,-11.03,0
34.316,-11.03,-11.03,0
34.336,,,
34.356,-11.16,-11.16,0
34.377,-11.16,-11.16,0
34.396,-11.4,-11.28,0
34.417,-11.28,-11.28,0
34.436,-11.4,-11.28,0
34.459,-11.28,-11.28,0
34.483,-11.4,-11.4,0
34.504,,,
34.516,-11.4,-11.28,0
34.536,-11.4,-11.28,0
34.557,-11.4,-11.4,0
34.578,-11.4,-11.4,0
34.603,-11.4,-11.28,0
34.627,-11.4,-11.4,1
34.652,-11.4,-11.28,1
34.672,,,
34.677,-11.4,-11.4,1
34.697,-11.4,-11.4,1
34.722,-11.4,-11.4,1
34.745,-11.52,-11.4,1
34.771,-11.52,-11.4,1
34.794,-11.4,-11.4,1
34.815,,,
34.822,-10.91,-10.91,1
34.842,,,
34.862,-10.3,-9.81,1
34.882,-9.32,-8.35,1
34.902,-7.37,-6.88,1
34.922,-5.9,-5.9,1
34.942,-5.05,-5.17,1
34.962,-4.19,-4.56,1
34.982,-3.7,-4.07,1
35.002,-2.85,-3.7,1
35.022,-2.6,-3.46,0
35.042,-2.6,-3.09,0
35.062,-1.87,-2.97,0
35.082,,,
35.102,-1.63,-2.72,0
35.123,-1.38,-2.48,0
35.143,-1.38,-2.36,0
35.164,-1.5,-2.36,0
35.184,-1.26,-2.24,0
35.203,-0.89,-2.36,0
35.223,-0.89,-2.24,0
35.243,-1.01,-1.87,0
35.263,-0.65,-1.99,0
35.284,-0.65,-1.87,0
35.304,-0.53,-1.87,0
35.323,-0.65,-1.87,0
35.344,,,
35.363,-1.01,-1.99,0
35.384,-0.65,-1.75,0
35.403,-0.4,-1.75,0
35.423,-0.28,-1.75,0
35.443,-0.53,-1.5,0
35.463,-0.4,-1.75,0
35.483,-1.5,-2.72,0
35.503,-3.58,-4.56,0
35.523,-5.17,-6.39,0
35.543,,,
35.564,-7,-8.96,0
35.583,-9.32,-10.06,0
35.604,-10.18,-10.54,0
35.624,-10.54,-10.91,0
35.643,-10.79,-10.91,0
35.664,-11.03,-11.03,0
35.683,-11.16,-11.16,0
35.709,-11.28,-11.28,0
35.728,,,
35.744,-11.28,-11.28,0
35.763,-11.28,-11.28,0
35.784,-11.4,-11.28,0
35.803,-11.4,-11.28,0
35.827,-11.4,-11.28,0
35.851,-11.4,-11.4,0
35.876,-11.52,-11.4,0
35.897,,,
35.903,-11.4,-11.28,0
35.924,,,
35.945,-11.52,-11.4,0
35.964,-11.52,-11.4,0
35.984,-11.4,-11.4,1
36.004,-11.4,-11.4,1
36.024,-11.28,-11.4,1
36.045,-11.4,-11.4,1
36.065,,,
36.085,-11.52,-11.4,1
36.105,-11.52,-11.4,1
36.125,-11.52,-11.4,1
36.144,-11.4,-11.4,1
36.164,-11.16,-10.91,1
36.188,-10.54,-9.93,1
36.208,-9.57,-8.35,1
36.233,-7.73,-7,1
36.253,-6.15,-5.9,1
36.273,-5.05,-5.17,1
36.298,-4.56,-4.56,1
36.318,-3.7,-3.95,1
36.34,-2.97,-3.7,1
36.363,-2.48,-3.34,0
36.385,-2.48,-2.97,0
36.404,-1.99,-2.72,0
36.429,-1.63,-2.6,0
36.45,-1.26,-2.36,0
36.47,,,
36.48,-1.14,-2.24,0
36.5,-1.26,-2.11,0
36.52,-1.01,-1.99,0
36.54,,,
36.56,-0.77,-2.11,0
36.58,-0.53,-1.87,0
36.601,-0.77,-1.75,0
36.62,-0.77,-1.75,0
36.64,-0.53,-1.63,0
36.66,-0.28,-1.63,0
36.68,-0.28,-1.63,0
36.7,-0.53,-1.63,0
36.72,-0.4,-1.5,0
36.74,-0.28,-1.38,0
36.757,0.09,-1.38,0
36.777,0.09,-1.38,0
36.798,-0.28,-1.5,0
36.818,-0.65,-2.11,0
36.842,-2.72,-3.82,0
36.863,-4.56,-5.29,0
36.884,-5.78,-7.49,0
36.908,-7.98,-9.45,0
36.928,-9.69,-10.3,0
36.949,,,
36.958,-10.42,-10.67,0
36.977,,,
36.998,-10.79,-10.91,0
37.018,-10.91,-11.03,0
37.037,-11.16,-11.16,0
37.058,-11.16,-11.16,0
37.078,-11.28,-11.28,0
37.098,-11.28,-11.4,0
37.118,,,
37.138,-11.4,-11.28,0
37.158,-11.4,-11.28,0
37.178,-11.4,-11.4,0
37.199,-11.4,-11.4,0
37.218,-11.4,-11.4,0
37.24,-11.4,-11.4,0
37.264,-11.52,-11.4,0
37.285,,,
37.299,-11.52,-11.4,0
37.319,-11.52,-11.4,0
37.339,-11.52,-11.4,1
37.358,-11.4,-11.4,1
37.383,-11.52,-11.4,1
37.408,-11.52,-11.4,1
37.429,,,
37.438,-11.52,-11.52,1
37.459,-11.52,-11.52,1
37.479,-11.52,-11.52,1
37.502,-11.4,-11.28,1
37.526,-10.79,-10.54,1
37.551,-10.06,-9.08,1
37.572,,,
37.592,-8.47,-7.49,1
37.612,-6.63,-6.15,1
37.632,-5.41,-5.41,1
37.652,-4.8,-4.68,1
37.673,-3.82,-4.07,1
37.692,-3.09,-3.7,0
37.712,-2.6,-3.46,0
37.732,-2.48,-3.09,0
37.752,-1.99,-2.85,0
37.772,,,
37.792,-1.63,-2.6,0
37.812,-1.14,-2.24,0
37.832,-1.01,-2.24,0
37.853,-1.26,-2.11,0
37.872,-1.01,-1.99,0
37.892,-0.77,-1.99,0
37.913,-0.4,-1.87,0
37.933,-0.53,-1.63,0
37.952,-0.65,-1.75,0
37.972,-0.4,-1.75,0
37.99,-0.16,-1.63,0
38.011,-0.16,-1.63,0
38.031,,,
38.051,-0.4,-1.63,0
38.07,-0.4,-1.38,0
38.09,-0.16,-1.38,0
38.11,0.21,-1.38,0
38.13,0.21,-1.26,0
38.15,-0.16,-1.38,0
38.171,-0.4,-1.63,0
38.19,-2.24,-3.21,0
38.21,-4.19,-4.92,0
38.23,-5.66,-7.37,0
38.25,,,
38.27,-7.98,-9.45,0
38.29,-9.81,-10.3,0
38.31,-10.3,-10.79,0
38.33,-10.79,-10.91,0
38.35,-11.03,-11.03,0
38.373,-11.16,-11.16,0
38.391,-11.16,-11.28,0
38.412,,,
38.431,-11.28,-11.28,0
38.452,-11.4,-11.28,0
38.472,-11.4,-11.4,0
38.491,-11.4,-11.4,0
38.516,-11.4,-11.4,0
38.534,-11.4,-11.4,0
38.559,-11.4,-11.4,0
38.579,,,
38.591,-11.52,-11.4,0
38.612,-11.4,-11.4,0
38.632,-11.52,-11.4,0
38.653,-11.52,-11.52,0
38.678,-11.4,-11.4,0
38.702,-11.4,-11.52,1
38.726,-11.4,-11.52,1
38.747,,,
38.752,-11.52,-11.52,1
38.772,-11.52,-11.52,1
38.796,-11.52,-11.52,1
38.821,-11.52,-11.52,1
38.844,-11.4,-11.28,1
38.87,-11.03,-10.79,1
38.891,,,
38.898,-10.3,-9.69,1
38.916,-9.45,-7.98,1
38.937,,,
38.956,-7.61,-6.63,1
38.977,-5.9,-5.66,1
38.996,-4.92,-4.8,1
39.017,-4.44,-4.31,1
39.036,-3.7,-3.95,1
39.056,-2.97,-3.46,0
39.082,-2.36,-3.21,0
39.097,-2.24,-2.85,0
39.116,-2.11,-2.6,0
39.137,-1.38,-2.6,0
39.157,-1.14,-2.6,0
39.177,-1.01,-2.72,0
39.197,,,
39.217,-1.14,-3.21,0
39.238,-1.01,-3.58,0
39.259,-0.77,-3.7,0
39.278,-0.4,-3.95,0
39.298,-0.53,-3.95,0
39.317,-0.77,-3.95,0
39.338,-0.4,-4.07,0
39.358,-0.16,-4.19,0
39.379,-0.28,-4.19,0
39.399,-0.4,-4.07,0
39.419,-0.4,-4.07,0
39.44,-0.16,-4.07,0
39.464,0.09,-4.07,0
39.485,0.33,-4.19,0
39.505,0.09,-4.31,0
39.526,-1.63,-5.41,0
39.546,-3.7,-7,0
39.567,,,
39.58,-5.29,-7.86,0
