Time (s),Pressure 1 (kPa),Pressure 2 (kPa),Switch State
0.119,-7.61,-7.86,1
0.14,-7.61,-7.98,1
0.16,-7.73,-7.98,1
0.18,-7.61,-7.98,1
0.205,-7.73,-7.98,1
0.22,-7.73,-7.98,1
0.24,-7.61,-7.98,1
0.26,-7.73,-7.98,1
0.28,-7.73,-7.98,1
0.3,-7.61,-7.98,1
0.32,-7.73,-7.98,1
0.34,-7.61,-7.98,1
0.359,-7.73,-7.98,1
0.38,-7.73,-7.98,1
0.4,-7.73,-7.86,1
0.42,-7.73,-7.86,1
0.44,-7.61,-7.98,1
0.459,-7.61,-7.98,1
0.48,-7.61,-7.98,1
0.499,-7.73,-7.98,1
0.52,-7.61,-7.86,1
0.54,-7.61,-7.98,1
0.561,-7.61,-7.98,1
0.581,-7.61,-7.98,1
0.6,-7.61,-7.98,1
0.622,-7.61,-7.98,1
0.64,-7.61,-7.98,1
0.66,-7.61,-7.98,1
0.68,-7.61,-7.98,1
0.701,-7.61,-7.98,1
0.721,-7.61,-7.98,1
0.74,-7.73,-7.98,1
0.761,-7.61,-7.98,1
0.788,-7.61,-7.98,1
0.8,-7.73,-7.98,1
0.82,-7.61,-7.98,1
0.84,-7.61,-7.98,1
0.861,-7.73,-7.98,1
0.881,-7.61,-7.98,1
0.9,-7.61,-7.98,1
0.921,-7.61,-7.98,1
0.941,-7.61,-7.98,1
0.961,-7.61,-7.86,1
0.981,-7.61,-7.98,1
1.001,-7.61,-7.98,1
1.021,-7.61,-7.98,1
1.041,-7.61,-7.98,1
1.062,-7.61,-7.98,1
1.081,-7.61,-7.98,1
1.101,-7.61,-7.98,1
1.121,-7.61,-7.98,1
1.141,-7.61,-7.98,1
1.161,-7.61,-7.86,1
1.181,-7.61,-7.98,1
1.201,-7.73,-7.98,1
1.221,-7.61,-7.86,1
1.241,-7.61,-7.98,1
1.261,-7.61,-7.98,1
1.281,-7.73,-7.98,1
1.301,-7.61,-7.98,1
1.323,-7.61,-7.98,1
1.323,-7.61,-7.98,1
1.343,-7.61,-7.98,1
1.363,-7.61,-7.98,1
1.383,-7.61,-7.98,1
1.403,-7.61,-7.98,1
1.423,-7.61,-7.86,1
1.443,-7.61,-7.98,1
1.463,-7.73,-7.98,1
1.483,-7.73,-7.98,1
1.503,-7.61,-7.98,1
1.523,-7.61,-7.98,1
1.543,-7.61,-7.86,1
1.563,-7.61,-7.98,1
1.583,-7.61,-7.98,1
1.604,-7.61,-7.98,1
1.623,-7.73,-7.98,1
1.643,-7.61,-7.98,1
1.663,-7.61,-7.98,1
1.683,-7.73,-7.98,1
1.703,-7.61,-7.98,1
1.723,-7.61,-7.98,1
1.744,-7.61,-7.98,1
1.764,-7.61,-7.86,1
1.784,-7.61,-7.98,1
1.804,-7.61,-7.98,1
1.823,-7.61,-7.98,1
1.852,-7.61,-7.98,1
1.864,-7.73,-7.98,1
1.884,-7.61,-7.86,1
1.904,-7.61,-7.98,1
1.924,-7.61,-7.98,1
1.943,-7.61,-7.98,1
1.964,-7.61,-7.86,1
1.984,-7.61,-7.98,1
2.004,-7.61,-7.86,1
2.023,-7.73,-7.98,1
2.044,-7.61,-7.98,1
2.064,-7.61,-7.86,1
2.084,-7.61,-7.86,1
2.104,-7.61,-7.98,1
2.124,-7.61,-7.98,1
2.124,-7.73,-7.98,1
2.145,-7.61,-7.98,1
2.164,-7.61,-7.98,1
2.184,-7.61,-7.98,1
2.205,-7.73,-7.98,1
2.225,-7.61,-7.98,1
2.244,-7.61,-7.98,1
2.265,-7.73,-7.98,1
2.284,-7.73,-7.98,1
2.304,-7.73,-7.98,1
2.324,-7.73,-7.98,1
2.345,-7.73,-7.86,1
2.364,-7.61,-7.98,1
2.385,-7.61,-7.98,1
2.405,-7.73,-7.98,1
2.425,-7.61,-7.98,1
2.444,-7.61,-7.98,1
2.464,-7.73,-7.86,1
2.485,-7.73,-7.98,1
2.505,-7.61,-7.98,1
2.524,-7.61,-7.98,1
2.545,-7.61,-7.98,1
2.565,-7.61,-7.98,1
2.584,-7.61,-7.98,1
2.605,-7.61,-7.98,1
2.625,-7.73,-7.98,1
2.644,-7.61,-7.98,1
2.665,-7.73,-7.98,1
2.685,-7.61,-7.86,1
2.705,-7.61,-7.98,1
2.725,-7.61,-7.98,1
2.745,-7.61,-7.98,1
2.765,-7.61,-7.98,1
2.785,-7.73,-7.98,1
2.805,-7.61,-7.86,1
2.825,-7.61,-7.98,1
2.845,-7.61,-7.98,1
2.865,-7.61,-7.98,1
2.885,-7.61,-7.98,1
2.905,-7.61,-7.98,1
2.925,-7.61,-7.98,1
2.925,-7.73,-7.86,1
2.945,-7.61,-7.98,1
2.965,-7.61,-7.98,1
2.985,-7.61,-7.98,1
3.005,-7.61,-7.98,1
3.025,-7.61,-7.98,1
3.045,-7.61,-7.98,1
3.065,-7.61,-7.86,1
3.085,-7.61,-7.98,1
3.105,-7.61,-7.98,1
3.125,-7.61,-7.98,1
3.145,-7.61,-7.98,1
3.165,-7.61,-7.98,1
3.185,-7.61,-7.86,1
3.205,-7.61,-7.98,1
3.226,-7.61,-7.98,1
3.246,-7.73,-7.98,1
3.265,-7.61,-7.86,1
3.285,-7.61,-7.98,1
3.305,-7.61,-7.98,1
3.325,-7.61,-7.98,1
3.326,-7.61,-7.98,1
3.346,-7.61,-7.98,1
3.366,-7.49,-7.86,1
3.387,-7.49,-7.98,1
3.407,-7.49,-7.98,1
3.428,-7.49,-7.98,1
3.447,-7.61,-7.98,1
3.466,-7.49,-7.98,1
3.486,-7.49,-7.86,1
3.507,-7.61,-7.98,1
3.527,-7.61,-7.98,1
3.546,-7.61,-7.98,1
3.566,-7.61,-7.98,1
3.586,-7.61,-7.86,1
3.607,-7.61,-7.98,1
3.626,-7.61,-7.98,1
3.647,-7.61,-7.98,1
3.666,-7.61,-7.98,1
3.686,-7.61,-7.98,1
3.706,-7.61,-8.35,1
3.726,-7.61,-8.71,1
3.747,-7.61,-8.96,1
3.767,-7.61,-9.08,1
3.787,-7.61,-8.96,1
3.807,-7.61,-8.71,1
3.827,-7.61,-8.47,1
3.847,-7.61,-8.22,1
3.867,-7.73,-8.22,1
3.887,-7.61,-8.1,1
3.907,-7.61,-8.1,1
3.927,-7.61,-8.1,1
3.947,-7.61,-7.98,1
3.973,-7.61,-7.98,1
3.987,-7.61,-7.98,1
4.007,-7.61,-7.98,1
4.027,-7.61,-7.98,1
4.047,-7.61,-7.98,1
4.067,-7.61,-7.98,1
4.087,-7.61,-7.98,1
4.107,-7.61,-7.98,1
4.127,-7.61,-7.98,1
4.148,-7.61,-7.98,1
4.169,-7.61,-7.98,1
4.187,-7.73,-7.98,1
4.208,-7.61,-7.98,1
4.227,-7.61,-7.98,1
4.248,-7.61,-7.98,1
4.268,-7.61,-7.98,1
4.288,-7.61,-7.98,1
4.308,-7.61,-7.98,1
4.328,-7.61,-7.98,1
4.348,-7.61,-7.98,1
4.368,-7.61,-7.98,1
4.388,-7.61,-7.98,1
4.408,-7.61,-7.98,1
4.428,-7.61,-7.98,1
4.447,-7.61,-7.98,1
4.467,-7.61,-7.98,1
4.488,-7.61,-7.98,1
4.508,-7.61,-7.98,1
4.528,-7.61,-7.86,1
4.549,-7.61,-7.98,1
4.568,-7.61,-7.98,1
4.588,-7.61,-7.98,1
4.609,-7.61,-7.98,1
4.628,-7.61,-7.98,1
4.648,-7.0,-7.73,1
4.669,-6.39,-7.25,1
4.688,-5.78,-6.76,1
4.709,-5.41,-6.39,1
4.729,-5.29,-6.15,1
4.748,-5.05,-5.9,1
4.768,-4.92,-5.66,1
4.788,-4.68,-5.54,1
4.808,-4.56,-5.41,1
4.828,-4.44,-5.29,1
4.848,-4.44,-5.17,1
4.869,-4.31,-5.17,1
4.888,-4.31,-5.05,1
4.908,-4.31,-5.05,1
4.929,-4.44,-5.05,1
4.949,-4.19,-5.05,1
4.97,-4.07,-5.05,0
4.99,-3.95,-5.05,0
5.009,-4.07,-4.92,0
5.03,-3.95,-4.92,0
5.049,-3.95,-4.92,0
5.069,-4.19,-4.8,0
5.09,-4.19,-4.8,0
5.109,-3.95,-4.8,0
5.129,-3.95,-4.8,0
5.149,-3.95,-4.8,0
5.17,-3.95,-4.8,0
5.19,-3.95,-4.8,0
5.209,-4.07,-4.8,0
5.23,-4.07,-4.92,0
5.249,-4.07,-4.92,0
5.269,-4.07,-4.92,0
5.29,-3.95,-4.8,0
5.309,-3.95,-4.92,0
5.337,-3.95,-4.8,0
5.358,-3.95,-4.8,0
5.377,-3.95,-4.8,0
5.398,-3.95,-4.68,0
5.418,-4.07,-4.68,0
5.437,-4.07,-4.8,0
5.458,-4.07,-4.8,0
5.478,-4.07,-4.8,0
5.498,-3.95,-4.92,0
5.518,-3.95,-4.92,0
5.537,-3.82,-4.8,0
5.557,-3.82,-4.8,0
5.578,-3.82,-4.68,0
5.598,-3.82,-4.68,0
5.618,-3.7,-4.68,0
5.638,-3.7,-4.56,0
5.658,-3.7,-4.68,0
5.678,-3.82,-4.56,0
5.698,-3.95,-4.68,0
5.718,-4.19,-5.05,0
5.738,-5.41,-6.15,0
5.759,-6.27,-6.88,0
5.779,-6.76,-7.86,0
5.799,-7.12,-8.96,0
5.819,-7.86,-9.45,0
5.838,-8.83,-9.69,0
5.859,-9.45,-9.81,0
5.879,-9.69,-9.93,0
5.899,-9.81,-9.93,0
5.919,-9.93,-10.06,0
5.939,-10.06,-10.06,0
5.959,-10.06,-10.06,0
5.979,-10.18,-10.06,0
5.999,-10.18,-10.18,0
6.019,-10.18,-10.18,0
6.039,-10.06,-10.18,0
6.059,-10.06,-10.3,0
6.079,-10.3,-10.18,0
6.099,-10.3,-10.18,0
6.119,-10.3,-10.18,0
6.138,-10.3,-10.18,0
6.159,-10.3,-10.18,0
6.179,-10.3,-10.18,0
6.199,-10.3,-10.18,0
6.219,-10.3,-10.18,0
6.239,-10.42,-10.3,0
6.259,-10.3,-10.18,0
6.279,-10.3,-10.3,0
6.299,-10.3,-10.3,0
6.319,-10.3,-10.3,0
6.339,-10.3,-10.3,0
6.359,-10.3,-10.18,0
6.379,-10.3,-10.3,0
6.399,-10.3,-10.3,0
6.419,-10.42,-10.18,0
6.44,-10.3,-10.3,0
6.459,-10.3,-10.3,1
6.479,-10.3,-10.3,1
6.499,-10.3,-10.3,1
6.519,-10.3,-10.3,1
6.539,-10.3,-10.3,1
6.539,-10.3,-10.3,1
6.56,-10.3,-10.3,1
6.579,-10.3,-10.3,1
6.599,-10.3,-10.3,1
6.619,-10.3,-10.3,1
6.639,-10.3,-10.3,1
6.659,-10.42,-10.3,1
6.68,-10.42,-10.3,1
6.699,-10.42,-10.3,1
6.719,-10.18,-10.06,1
6.739,-9.57,-9.45,1
6.76,-8.96,-8.83,1
6.78,-8.59,-7.86,1
6.799,-7.98,-7.12,1
6.819,-7.25,-6.63,1
6.839,-6.51,-6.39,1
6.859,-6.15,-6.15,1
6.88,-5.78,-5.9,1
6.9,-5.17,-5.78,1
6.919,-4.92,-5.66,1
6.939,-4.8,-5.41,1
6.959,-4.68,-5.41,1
6.98,-4.68,-5.29,1
6.999,-4.68,-5.29,1
7.019,-4.68,-5.17,1
7.039,-4.56,-5.17,1
7.059,-4.31,-5.17,1
7.079,-4.07,-5.05,0
7.1,-3.95,-5.17,0
7.12,-3.95,-5.05,0
7.139,-4.07,-5.05,0
7.159,-4.19,-4.92,0
7.179,-4.19,-4.92,0
7.2,-4.19,-4.92,0
7.219,-3.95,-4.92,0
7.239,-3.95,-4.8,0
7.26,-3.82,-4.8,0
7.28,-3.95,-4.8,0
7.299,-3.95,-4.92,0
7.319,-4.07,-4.92,0
7.339,-4.07,-4.92,0
7.339,-4.19,-4.92,0
7.36,-3.82,-4.92,0
7.38,-3.7,-4.8,0
7.399,-3.7,-4.8,0
7.42,-3.82,-4.8,0
7.44,-3.82,-4.68,0
7.46,-3.95,-4.68,0
7.48,-3.95,-4.68,0
7.5,-3.95,-4.8,0
7.519,-3.95,-4.8,0
7.54,-3.82,-4.8,0
7.56,-3.82,-4.8,0
7.579,-3.82,-4.92,0
7.599,-3.7,-4.8,0
7.619,-3.82,-4.8,0
7.64,-3.7,-4.8,0
7.66,-3.95,-4.68,0
7.68,-3.7,-4.68,0
7.699,-3.58,-4.68,0
7.72,-3.58,-4.68,0
7.74,-3.7,-4.56,0
7.76,-3.7,-4.68,0
7.78,-3.95,-4.68,0
7.801,-4.92,-5.78,0
7.82,-5.9,-6.63,0
7.84,-6.63,-7.49,0
7.861,-7.0,-8.59,0
7.881,-7.61,-9.2,0
7.901,-8.47,-9.57,0
7.921,-9.2,-9.69,0
7.941,-9.57,-9.81,0
7.962,-9.69,-9.93,0
7.981,-9.81,-9.93,0
8.001,-9.93,-9.93,0
8.021,-10.06,-10.06,0
8.041,-10.18,-10.06,0
8.06,-10.06,-10.06,0
8.08,-10.18,-10.06,0
8.1,-10.06,-10.18,0
8.121,-10.06,-10.18,0
8.141,-10.18,-10.18,0
8.141,-10.3,-10.18,0
8.162,-10.3,-10.18,0
8.182,-10.42,-10.18,0
8.201,-10.3,-10.18,0
8.221,-10.3,-10.18,0
8.242,-10.18,-10.18,0
8.262,-10.3,-10.3,0
8.281,-10.3,-10.18,0
8.302,-10.42,-10.3,0
8.321,-10.3,-10.3,0
8.342,-10.3,-10.18,0
8.361,-10.3,-10.3,0
8.381,-10.3,-10.18,0
8.402,-10.3,-10.18,0
8.421,-10.3,-10.18,0
8.442,-10.42,-10.3,0
8.461,-10.42,-10.3,0
8.482,-10.42,-10.3,0
8.501,-10.3,-10.3,1
8.522,-10.3,-10.3,1
8.541,-10.3,-10.3,1
8.562,-10.3,-10.3,1
8.582,-10.3,-10.3,1
8.601,-10.42,-10.3,1
8.621,-10.3,-10.3,1
8.642,-10.42,-10.3,1
8.662,-10.42,-10.3,1
8.681,-10.42,-10.3,1
8.701,-10.42,-10.3,1
8.722,-10.42,-10.3,1
8.741,-10.42,-10.3,1
8.761,-10.42,-10.3,1
8.782,-10.42,-10.3,1
8.801,-9.81,-9.69,1
8.821,-9.32,-9.08,1
8.842,-8.83,-8.35,1
8.861,-8.35,-7.49,1
8.882,-7.61,-6.88,1
8.902,-6.88,-6.51,1
8.922,-6.39,-6.27,1
8.942,-5.9,-6.02,1
8.963,-5.41,-5.9,1
8.982,-5.05,-5.66,1
9.002,-4.8,-5.54,1
9.023,-4.68,-5.41,1
9.042,-4.68,-5.29,1
9.063,-4.68,-5.29,1
9.083,-4.68,-5.17,1
9.102,-4.68,-5.17,1
9.122,-4.44,-5.05,1
9.142,-4.07,-5.05,0
9.162,-3.95,-5.05,0
9.182,-3.95,-5.05,0
9.203,-3.95,-5.05,0
9.222,-4.07,-4.92,0
9.243,-4.19,-4.92,0
9.262,-4.19,-4.92,0
9.282,-4.07,-4.92,0
9.302,-3.82,-4.8,0
9.322,-3.82,-4.8,0
9.342,-3.95,-4.8,0
9.342,-3.95,-4.92,0
9.363,-3.95,-4.8,0
9.382,-4.07,-4.8,0
9.403,-4.07,-4.92,0
9.423,-4.07,-4.8,0
9.443,-3.82,-4.92,0
9.463,-3.7,-4.8,0
9.482,-3.82,-4.8,0
9.503,-3.82,-4.68,0
9.523,-3.82,-4.68,0
9.543,-3.95,-4.68,0
9.562,-4.07,-4.68,0
9.583,-4.07,-4.68,0
9.603,-3.95,-4.8,0
9.622,-3.82,-4.8,0
9.643,-3.7,-4.8,0
9.662,-3.7,-4.8,0
9.683,-3.7,-4.8,0
9.703,-3.82,-4.68,0
9.722,-3.82,-4.68,0
9.742,-3.7,-4.68,0
9.742,-3.58,-4.68,0
9.763,-3.46,-4.56,0
9.783,-3.58,-4.56,0
9.806,-3.7,-4.68,0
9.822,-3.95,-4.92,0
9.842,-5.17,-6.02,0
9.863,-6.15,-6.88,0
9.883,-6.76,-7.98,0
9.903,-7.12,-8.96,0
9.923,-7.98,-9.45,0
9.942,-8.96,-9.69,0
9.963,-9.32,-9.81,0
9.983,-9.69,-9.93,0
10.003,-9.81,-10.06,0
10.023,-9.93,-10.06,0
10.042,-10.06,-10.06,0
10.063,-10.18,-10.06,0
10.083,-10.18,-10.18,0
10.103,-10.18,-10.18,0
10.123,-10.06,-10.18,0
10.143,-10.18,-10.18,0
10.163,-10.3,-10.18,0
10.183,-10.3,-10.18,0
10.203,-10.3,-10.18,0
10.223,-10.42,-10.18,0
10.243,-10.42,-10.18,0
10.263,-10.3,-10.18,0
10.283,-10.3,-10.18,0
10.303,-10.42,-10.18,0
10.323,-10.42,-10.3,0
10.344,-10.3,-10.3,0
10.363,-10.3,-10.3,0
10.383,-10.3,-10.3,0
10.403,-10.3,-10.3,0
10.423,-10.18,-10.3,0
10.443,-10.3,-10.3,0
10.464,-10.42,-10.3,0
10.483,-10.42,-10.3,0
10.503,-10.42,-10.3,0
10.523,-10.3,-10.3,1
10.544,-10.3,-10.3,1
10.544,-10.3,-10.3,1
10.564,-10.3,-10.3,1
10.584,-10.3,-10.3,1
10.604,-10.3,-10.3,1
10.624,-10.3,-10.3,1
10.645,-10.3,-10.3,1
10.664,-10.3,-10.3,1
10.685,-10.3,-10.3,1
10.705,-10.42,-10.3,1
10.724,-10.42,-10.3,1
10.745,-10.42,-10.3,1
10.764,-10.42,-10.42,1
10.784,-10.06,-9.93,1
10.804,-9.45,-9.32,1
10.824,-8.83,-8.59,1
10.844,-8.47,-7.73,1
10.864,-7.73,-6.88,1
10.885,-7.0,-6.63,1
10.904,-6.39,-6.27,1
10.924,-5.9,-6.15,1
10.944,-5.54,-5.9,1
10.965,-5.05,-5.66,1
10.984,-4.8,-5.54,1
11.005,-4.68,-5.41,1
11.024,-4.56,-5.29,1
11.045,-4.68,-5.17,1
11.065,-4.68,-5.17,1
11.085,-4.56,-5.17,1
11.105,-4.31,-5.05,1
11.124,-4.07,-5.05,0
11.144,-3.95,-5.05,0
11.165,-3.95,-5.05,0
11.185,-3.95,-5.05,0
11.205,-4.19,-4.92,0
11.224,-4.07,-4.92,0
11.245,-4.07,-4.92,0
11.265,-3.95,-4.8,0
11.285,-3.82,-4.8,0
11.304,-3.95,-4.8,0
11.325,-3.95,-4.8,0
11.344,-3.95,-4.8,0
11.344,-4.07,-4.92,0
11.365,-4.07,-4.8,0
11.389,-3.95,-4.8,0
11.405,-3.82,-4.8,0
11.425,-3.7,-4.8,0
11.445,-3.7,-4.8,0
11.465,-3.7,-4.68,0
11.485,-3.82,-4.68,0
11.505,-3.95,-4.68,0
11.525,-3.95,-4.68,0
11.545,-3.95,-4.68,0
11.565,-3.82,-4.8,0
11.585,-3.7,-4.8,0
11.605,-3.7,-4.68,0
11.625,-3.7,-4.8,0
11.645,-3.7,-4.68,0
11.665,-3.82,-4.68,0
11.685,-3.82,-4.56,0
11.705,-3.7,-4.56,0
11.725,-3.58,-4.56,0
11.745,-3.58,-4.56,0
11.766,-3.58,-4.56,0
11.786,-3.7,-4.68,0
11.805,-4.56,-5.41,0
11.826,-5.66,-6.39,0
11.846,-6.51,-7.25,0
11.865,-7.0,-8.59,0
11.886,-7.61,-9.32,0
11.906,-8.59,-9.57,0
11.926,-9.2,-9.81,0
11.946,-9.57,-9.93,0
11.966,-9.81,-9.93,0
11.985,-9.93,-10.06,0
12.006,-10.06,-10.06,0
12.026,-10.18,-10.06,0
12.046,-10.18,-10.06,0
12.066,-10.18,-10.18,0
12.086,-10.18,-10.18,0
12.106,-10.06,-10.3,0
12.126,-10.18,-10.3,0
12.146,-10.3,-10.18,0
12.167,-10.42,-10.3,0
12.187,-10.42,-10.18,0
12.206,-10.3,-10.18,0
12.226,-10.3,-10.3,0
12.247,-10.3,-10.18,0
12.267,-10.3,-10.18,0
12.287,-10.42,-10.18,0
12.307,-10.42,-10.3,0
12.327,-10.3,-10.3,0
12.346,-10.3,-10.3,0
12.366,-10.3,-10.3,0
12.387,-10.3,-10.3,0
12.407,-10.3,-10.3,0
12.426,-10.3,-10.3,0
12.447,-10.42,-10.3,0
12.467,-10.42,-10.3,0
12.486,-10.42,-10.3,0
12.507,-10.3,-10.3,1
12.527,-10.3,-10.3,1
12.547,-10.3,-10.3,1
12.568,-10.3,-10.42,1
12.588,-10.3,-10.3,1
12.607,-10.42,-10.3,1
12.627,-10.42,-10.3,1
12.647,-10.3,-10.3,1
12.667,-10.42,-10.3,1
12.688,-10.42,-10.3,1
12.708,-10.42,-10.3,1
12.727,-10.42,-10.3,1
12.748,-10.42,-10.3,1
12.767,-10.3,-10.3,1
12.788,-9.81,-9.69,1
12.807,-9.2,-9.08,1
12.828,-8.71,-8.22,1
12.847,-8.22,-7.37,1
12.868,-7.49,-6.76,1
12.887,-6.76,-6.39,1
12.908,-6.15,-6.15,1
12.927,-5.66,-5.9,1
12.947,-5.29,-5.78,1
12.947,-4.92,-5.54,1
12.968,-4.8,-5.41,1
12.988,-4.68,-5.29,1
13.008,-4.68,-5.29,1
13.028,-4.68,-5.17,1
13.048,-4.56,-5.17,1
13.068,-4.44,-5.05,1
13.088,-4.19,-5.05,0
13.108,-4.07,-5.05,0
13.128,-3.95,-5.05,0
13.148,-3.95,-5.05,0
13.167,-4.07,-4.92,0
13.188,-4.19,-4.92,0
13.208,-4.07,-4.92,0
13.228,-3.95,-4.8,0
13.248,-3.95,-4.8,0
13.268,-3.82,-4.8,0
13.288,-3.82,-4.8,0
13.308,-3.95,-4.8,0
13.328,-4.07,-4.8,0
13.348,-4.07,-4.8,0
13.348,-3.95,-4.8,0
13.369,-3.82,-4.8,0
13.388,-3.7,-4.8,0
13.408,-3.7,-4.8,0
13.429,-3.7,-4.8,0
13.448,-3.7,-4.8,0
13.468,-3.95,-4.68,0
13.488,-3.82,-4.68,0
13.508,-3.82,-4.68,0
13.528,-3.95,-4.8,0
13.548,-3.82,-4.8,0
13.568,-3.82,-4.92,0
13.588,-3.7,-4.92,0
13.608,-3.7,-4.8,0
13.629,-3.82,-4.68,0
13.648,-3.7,-4.68,0
13.669,-3.7,-4.68,0
13.689,-3.58,-4.68,0
13.708,-3.58,-4.56,0
13.728,-3.58,-4.56,0
13.749,-3.7,-4.56,0
13.749,-3.95,-4.8,0
13.769,-5.17,-5.9,0
13.789,-6.15,-6.76,0
13.809,-6.88,-7.86,0
13.829,-7.25,-8.96,0
13.849,-8.1,-9.45,0
13.869,-8.96,-9.69,0
13.889,-9.45,-9.81,0
13.91,-9.69,-9.93,0
13.929,-9.93,-10.06,0
13.949,-10.06,-10.06,0
13.969,-10.18,-10.06,0
13.989,-10.18,-10.06,0
14.01,-10.18,-10.18,0
14.029,-10.06,-10.18,0
14.049,-10.18,-10.18,0
14.069,-10.18,-10.18,0
14.089,-10.3,-10.18,0
14.109,-10.3,-10.3,0
14.129,-10.3,-10.3,0
14.149,-10.3,-10.3,0
14.149,-10.3,-10.18,0
14.169,-10.3,-10.18,0
14.189,-10.3,-10.3,0
14.21,-10.3,-10.3,0
14.23,-10.3,-10.3,0
14.249,-10.3,-10.3,0
14.269,-10.3,-10.3,0
14.289,-10.3,-10.3,0
14.31,-10.3,-10.3,0
14.329,-10.3,-10.3,0
14.35,-10.3,-10.3,0
14.369,-10.42,-10.3,0
14.389,-10.42,-10.3,0
14.41,-10.42,-10.3,0
14.43,-10.3,-10.3,1
14.449,-10.3,-10.3,1
14.469,-10.42,-10.3,1
14.49,-10.42,-10.3,1
14.509,-10.3,-10.3,1
14.53,-10.42,-10.3,1
14.549,-10.42,-10.18,1
14.57,-10.42,-10.3,1
14.59,-10.42,-10.3,1
14.609,-10.42,-10.3,1
14.63,-10.42,-10.3,1
14.65,-10.42,-10.42,1
14.67,-10.42,-10.42,1
14.69,-10.42,-10.42,1
14.71,-10.06,-9.93,1
14.73,-9.45,-9.32,1
14.75,-8.83,-8.59,1
14.77,-8.47,-7.73,1
14.79,-7.73,-7.0,1
14.81,-7.0,-6.51,1
14.83,-6.39,-6.27,1
14.85,-5.78,-6.02,1
14.869,-5.41,-5.9,1
14.89,-5.05,-5.66,1
14.91,-4.8,-5.54,1
14.93,-4.68,-5.29,1
14.95,-4.56,-5.29,1
14.95,-4.68,-5.17,1
14.97,-4.56,-5.17,1
14.99,-4.44,-5.05,1
15.01,-4.31,-5.05,1
15.03,-4.07,-5.05,0
15.05,-3.95,-5.05,0
15.07,-3.95,-5.05,0
15.09,-3.95,-4.92,0
15.11,-4.07,-4.92,0
15.13,-4.07,-4.8,0
15.15,-3.95,-4.8,0
15.17,-3.95,-4.8,0
15.19,-3.82,-4.8,0
15.21,-3.82,-4.68,0
15.23,-3.82,-4.8,0
15.25,-3.95,-4.8,0
15.27,-4.07,-4.8,0
15.29,-3.95,-4.8,0
15.31,-3.82,-4.8,0
15.33,-3.82,-4.8,0
15.35,-3.7,-4.68,0
15.371,-3.7,-4.68,0
15.391,-3.7,-4.68,0
15.411,-3.82,-4.68,0
15.431,-3.95,-4.68,0
15.451,-3.82,-4.68,0
15.471,-3.95,-4.68,0
15.491,-3.95,-4.8,0
15.511,-3.82,-4.8,0
15.531,-3.7,-4.8,0
15.551,-3.82,-4.8,0
15.57,-3.7,-4.68,0
15.591,-3.7,-4.68,0
15.611,-3.7,-4.68,0
15.631,-3.7,-4.68,0
15.651,-3.58,-4.68,0
15.671,-3.58,-4.56,0
15.691,-3.7,-4.68,0
15.711,-3.7,-4.68,0
15.73,-4.56,-5.54,0
15.751,-5.78,-6.51,0
15.772,-6.51,-7.25,0
15.792,-7.0,-8.59,0
15.812,-7.61,-9.32,0
15.833,-8.71,-9.57,0
15.851,-9.2,-9.81,0
15.872,-9.57,-9.93,0
15.892,-9.81,-10.06,0
15.911,-9.93,-10.06,0
15.932,-10.06,-10.06,0
15.951,-10.18,-10.06,0
15.972,-10.18,-10.18,0
15.992,-10.06,-10.18,0
16.012,-10.18,-10.18,0
16.032,-10.18,-10.18,0
16.052,-10.18,-10.18,0
16.072,-10.3,-10.18,0
16.092,-10.3,-10.3,0
16.112,-10.3,-10.18,0
16.131,-10.3,-10.18,0
16.152,-10.3,-10.3,0
16.172,-10.3,-10.18,0
16.192,-10.3,-10.3,0
16.213,-10.42,-10.3,0
16.233,-10.42,-10.3,0
16.252,-10.3,-10.3,0
16.272,-10.3,-10.3,0
16.292,-10.3,-10.3,0
16.312,-10.3,-10.3,0
16.332,-10.3,-10.3,0
16.352,-10.3,-10.3,0
16.372,-10.42,-10.3,0
16.392,-10.42,-10.3,0
16.412,-10.42,-10.3,0
16.432,-10.42,-10.3,1
16.453,-10.42,-10.3,1
16.473,-10.3,-10.3,1
16.492,-10.3,-10.42,1
16.512,-10.3,-10.3,1
16.533,-10.42,-10.3,1
16.552,-10.42,-10.3,1
16.552,-10.42,-10.3,1
16.573,-10.42,-10.3,1
16.592,-10.42,-10.3,1
16.613,-10.42,-10.3,1
16.633,-10.54,-10.42,1
16.652,-10.42,-10.42,1
16.673,-10.3,-10.3,1
16.693,-9.69,-9.57,1
16.713,-9.08,-8.96,1
16.733,-8.59,-8.1,1
16.756,-8.22,-7.25,1
16.773,-7.37,-6.76,1
16.793,-6.63,-6.39,1
16.813,-6.15,-6.15,1
16.832,-5.54,-5.9,1
16.853,-5.29,-5.66,1
16.873,-4.92,-5.54,1
16.893,-4.68,-5.41,1
16.913,-4.68,-5.29,1
16.933,-4.56,-5.17,1
16.953,-4.56,-5.17,1
16.973,-4.56,-5.17,1
16.994,-4.31,-5.05,1
17.013,-4.19,-5.05,0
17.034,-3.95,-5.05,0
17.053,-3.95,-5.05,0
17.073,-3.82,-5.05,0
17.093,-3.95,-4.92,0
17.113,-4.07,-4.92,0
17.133,-3.95,-4.92,0
17.153,-3.95,-4.8,0
17.173,-3.95,-4.8,0
17.194,-3.95,-4.8,0
17.214,-3.95,-4.8,0
17.234,-3.82,-4.8,0
17.254,-3.95,-4.8,0
17.273,-4.07,-4.8,0
17.294,-3.82,-4.8,0
17.313,-3.95,-4.8,0
17.333,-3.82,-4.68,0
17.353,-3.7,-4.68,0
17.374,-3.7,-4.68,0
17.394,-3.82,-4.68,0
17.414,-3.82,-4.56,0
17.433,-3.82,-4.68,0
17.454,-3.82,-4.68,0
17.473,-3.95,-4.68,0
17.494,-3.82,-4.68,0
17.513,-3.82,-4.8,0
17.533,-3.7,-4.68,0
17.553,-3.7,-4.68,0
17.573,-3.7,-4.68,0
17.593,-3.7,-4.68,0
17.614,-3.7,-4.56,0
17.633,-3.7,-4.56,0
17.654,-3.58,-4.56,0
17.674,-3.58,-4.56,0
17.694,-3.7,-4.56,0
17.714,-4.07,-4.92,0
17.734,-5.29,-6.02,0
17.754,-6.15,-6.88,0
17.775,-6.76,-7.98,0
17.794,-7.25,-9.08,0
17.815,-8.22,-9.45,0
17.835,-9.08,-9.69,0
17.855,-9.45,-9.93,0
17.875,-9.81,-9.93,0
17.894,-9.93,-10.06,0
17.915,-9.93,-10.06,0
17.934,-10.06,-10.18,0
17.954,-10.06,-10.18,0
17.974,-10.18,-10.18,0
17.994,-10.18,-10.18,0
18.014,-10.18,-10.3,0
18.034,-10.3,-10.3,0
18.055,-10.3,-10.18,0
18.075,-10.42,-10.3,0
18.095,-10.3,-10.18,0
18.114,-10.3,-10.3,0
18.135,-10.3,-10.3,0
18.154,-10.42,-10.3,0
18.154,-10.3,-10.3,0
18.175,-10.42,-10.3,0
18.195,-10.3,-10.18,0
18.215,-10.42,-10.3,0
18.235,-10.3,-10.3,0
18.255,-10.3,-10.3,0
18.275,-10.3,-10.3,0
18.295,-10.42,-10.3,0
18.315,-10.42,-10.3,0
18.335,-10.42,-10.3,0
18.354,-10.42,-10.3,0
18.375,-10.42,-10.3,0
18.395,-10.42,-10.3,1
18.415,-10.42,-10.3,1
18.435,-10.42,-10.3,1
18.455,-10.3,-10.3,1
18.475,-10.3,-10.3,1
18.495,-10.3,-10.3,1
18.515,-10.42,-10.3,1
18.535,-10.42,-10.3,1
18.555,-10.42,-10.3,1
18.575,-10.42,-10.42,1
18.595,-10.42,-10.42,1
18.615,-10.42,-10.42,1
18.635,-10.42,-10.3,1
18.655,-10.54,-10.42,1
18.676,-10.06,-9.93,1
18.695,-9.45,-9.32,1
18.715,-8.96,-8.59,1
18.735,-8.47,-7.61,1
18.755,-7.73,-7.0,1
18.775,-6.88,-6.51,1
18.795,-6.39,-6.27,1
18.816,-5.9,-6.02,1
18.835,-5.41,-5.78,1
18.856,-5.17,-5.66,1
18.875,-4.8,-5.41,1
18.895,-4.56,-5.29,1
18.915,-4.56,-5.29,1
18.935,-4.56,-5.17,1
18.956,-4.56,-5.05,1
18.976,-4.56,-5.05,1
18.996,-4.19,-5.05,1
19.016,-4.07,-5.05,0
19.036,-3.95,-5.05,0
19.057,-3.82,-4.92,0
19.076,-3.82,-4.92,0
19.096,-4.07,-4.92,0
19.116,-4.07,-4.92,0
19.136,-3.95,-4.8,0
19.156,-3.95,-4.8,0
19.176,-3.95,-4.8,0
19.196,-3.82,-4.8,0
19.216,-3.82,-4.8,0
19.236,-3.95,-4.8,0
19.256,-4.07,-4.92,0
19.276,-4.07,-4.8,0
19.296,-3.82,-4.8,0
19.316,-3.82,-4.8,0
19.336,-3.82,-4.68,0
19.357,-3.7,-4.68,0
19.377,-3.7,-4.68,0
19.397,-3.82,-4.68,0
19.417,-3.82,-4.68,0
19.437,-3.82,-4.68,0
19.457,-3.95,-4.68,0
19.477,-3.95,-4.8,0
19.497,-3.82,-4.8,0
19.517,-3.7,-4.8,0
19.537,-3.7,-4.8,0
19.557,-3.7,-4.68,0
19.577,-3.7,-4.56,0
19.597,-3.7,-4.56,0
19.617,-3.7,-4.56,0
19.637,-3.58,-4.56,0
19.657,-3.58,-4.56,0
19.677,-3.58,-4.56,0
19.697,-3.7,-4.68,0
19.717,-4.56,-5.54,0
19.737,-5.78,-6.39,0
19.758,-6.51,-7.25,0
19.778,-6.88,-8.59,0
19.799,-7.61,-9.2,0
19.818,-8.59,-9.57,0
19.838,-9.2,-9.81,0
19.858,-9.57,-9.93,0
19.878,-9.81,-10.06,0
19.898,-9.93,-10.06,0
19.918,-10.06,-10.18,0
19.939,-10.06,-10.18,0
19.958,-10.18,-10.18,0
19.978,-10.18,-10.18,0
19.998,-10.18,-10.3,0
20.018,-10.18,-10.3,0
20.038,-10.3,-10.3,0
20.058,-10.3,-10.3,0
20.078,-10.42,-10.3,0
20.098,-10.3,-10.3,0
20.118,-10.3,-10.3,0
20.138,-10.42,-10.3,0
20.158,-10.42,-10.3,0
20.158,-10.3,-10.3,0
20.178,-10.42,-10.3,0
20.198,-10.42,-10.3,0
20.218,-10.3,-10.3,0
20.238,-10.3,-10.3,0
20.258,-10.42,-10.3,0
20.279,-10.42,-10.3,0
20.299,-10.42,-10.3,0
20.319,-10.42,-10.3,0
20.338,-10.42,-10.3,0
20.358,-10.42,-10.3,0
20.379,-10.42,-10.3,1
20.406,-10.42,-10.3,1
20.419,-10.42,-10.3,1
20.439,-10.3,-10.3,1
20.459,-10.42,-10.3,1
20.478,-10.42,-10.3,1
20.498,-10.3,-10.3,1
20.518,-10.42,-10.3,1
20.539,-10.42,-10.3,1
20.559,-10.42,-10.3,1
20.579,-10.42,-10.42,1
20.599,-10.42,-10.3,1
20.62,-10.42,-10.3,1
20.639,-10.42,-10.42,1
20.659,-10.3,-10.18,1
20.679,-9.69,-9.69,1
20.7,-9.08,-8.96,1
20.72,-8.59,-8.1,1
20.74,-8.1,-7.25,1
20.759,-7.37,-6.76,1
20.779,-6.51,-6.39,1
20.8,-6.15,-6.15,1
20.819,-5.66,-5.9,1
20.84,-5.29,-5.78,1
20.859,-5.05,-5.54,1
20.879,-4.68,-5.41,1
20.899,-4.56,-5.41,1
20.922,-4.56,-5.29,1
20.939,-4.56,-5.17,1
20.959,-4.68,-5.05,1
20.959,-4.31,-5.05,1
20.98,-4.19,-5.05,0
21.0,-4.07,-5.05,0
21.019,-3.82,-4.92,0
21.039,-3.82,-4.92,0
21.059,-4.07,-4.92,0
21.08,-4.07,-4.8,0
21.099,-4.07,-4.8,0
21.12,-3.95,-4.8,0
21.14,-3.95,-4.8,0
21.16,-3.95,-4.8,0
21.179,-3.82,-4.68,0
21.2,-3.82,-4.8,0
21.219,-3.95,-4.8,0
21.24,-4.07,-4.8,0
21.259,-3.95,-4.8,0
21.279,-3.82,-4.8,0
21.299,-3.82,-4.8,0
21.32,-3.82,-4.68,0
21.34,-3.7,-4.68,0
21.359,-3.7,-4.68,0
21.379,-3.82,-4.68,0
21.401,-3.95,-4.68,0
21.42,-3.82,-4.68,0
21.44,-3.82,-4.8,0
21.459,-3.95,-4.8,0
21.479,-3.82,-4.8,0
21.499,-3.7,-4.8,0
21.52,-3.7,-4.68,0
21.54,-3.58,-4.68,0
21.559,-3.7,-4.68,0
21.579,-3.7,-4.68,0
21.599,-3.58,-4.68,0
21.62,-3.58,-4.56,0
21.64,-3.58,-4.56,0
21.66,-3.58,-4.56,0
21.68,-3.95,-4.92,0
21.7,-5.29,-6.02,0
21.72,-6.27,-6.88,0
21.739,-6.76,-8.1,0
21.76,-7.25,-8.96,0
21.78,-8.22,-9.45,0
21.8,-8.96,-9.69,0
21.82,-9.45,-9.81,0
21.84,-9.81,-9.93,0
21.86,-9.93,-10.06,0
21.88,-10.06,-10.06,0
21.9,-10.18,-10.06,0
21.92,-10.18,-10.06,0
21.94,-10.18,-10.18,0
21.96,-10.18,-10.18,0
21.98,-10.18,-10.3,0
22.0,-10.3,-10.3,0
22.02,-10.3,-10.3,0
22.04,-10.3,-10.3,0
22.06,-10.42,-10.3,0
22.081,-10.3,-10.18,0
22.1,-10.3,-10.18,0
22.12,-10.42,-10.18,0
22.14,-10.3,-10.3,0
22.161,-10.42,-10.3,0
22.161,-10.3,-10.3,0
22.182,-10.42,-10.3,0
22.201,-10.3,-10.3,0
22.221,-10.3,-10.3,0
22.241,-10.3,-10.3,0
22.261,-10.3,-10.3,0
22.282,-10.42,-10.3,0
22.301,-10.42,-10.3,0
22.321,-10.42,-10.3,0
22.341,-10.42,-10.3,0
22.361,-10.42,-10.3,1
22.381,-10.42,-10.3,1
22.401,-10.3,-10.3,1
22.421,-10.42,-10.3,1
22.441,-10.3,-10.3,1
22.461,-10.3,-10.3,1
22.481,-10.3,-10.3,1
22.501,-10.42,-10.3,1
22.522,-10.42,-10.3,1
22.541,-10.42,-10.3,1
22.561,-10.42,-10.42,1
22.582,-10.42,-10.3,1
22.602,-10.42,-10.3,1
22.622,-10.42,-10.42,1
22.641,-10.06,-9.93,1
22.661,-9.32,-9.32,1
22.682,-8.83,-8.59,1
22.702,-8.35,-7.61,1
22.722,-7.73,-6.88,1
22.741,-6.88,-6.51,1
22.762,-6.27,-6.27,1
22.782,-5.9,-6.02,1
22.802,-5.41,-5.9,1
22.822,-5.17,-5.66,1
22.841,-4.92,-5.54,1
22.862,-4.8,-5.41,1
22.882,-4.56,-5.29,1
22.902,-4.56,-5.17,1
22.922,-4.56,-5.17,1
22.942,-4.56,-5.05,1
22.962,-4.31,-5.05,1
22.962,-4.19,-5.05,0
22.982,-4.07,-5.05,0
23.003,-3.95,-5.05,0
23.023,-3.95,-4.92,0
23.043,-3.95,-4.92,0
23.063,-4.07,-4.8,0
23.082,-3.95,-4.8,0
23.103,-3.95,-4.8,0
23.122,-3.95,-4.8,0
23.143,-3.82,-4.8,0
23.163,-3.82,-4.8,0
23.183,-3.82,-4.8,0
23.202,-3.95,-4.8,0
23.223,-3.95,-4.8,0
23.243,-3.82,-4.8,0
23.263,-3.82,-4.8,0
23.282,-3.82,-4.68,0
23.302,-3.7,-4.68,0
23.323,-3.7,-4.68,0
23.342,-3.7,-4.68,0
23.363,-3.82,-4.68,0
23.384,-3.95,-4.68,0
23.403,-3.82,-4.68,0
23.423,-3.95,-4.68,0
23.443,-3.82,-4.8,0
23.463,-3.7,-4.8,0
23.483,-3.7,-4.8,0
23.503,-3.58,-4.68,0
23.524,-3.7,-4.68,0
23.543,-3.82,-4.68,0
23.563,-3.7,-4.68,0
23.584,-3.7,-4.56,0
23.603,-3.58,-4.56,0
23.624,-3.58,-4.68,0
23.644,-3.7,-4.68,0
23.664,-4.68,-5.66,0
23.684,-5.9,-6.51,0
23.704,-6.63,-7.37,0
23.723,-7.12,-8.71,0
23.743,-7.73,-9.32,0
23.763,-8.59,-9.69,0
23.784,-9.32,-9.81,0
23.804,-9.69,-9.93,0
23.824,-9.81,-10.06,0
23.844,-9.93,-10.06,0
23.864,-10.06,-10.18,0
23.884,-10.18,-10.06,0
23.904,-10.18,-10.18,0
23.924,-10.3,-10.18,0
23.944,-10.18,-10.18,0
23.964,-10.18,-10.3,0
23.984,-10.3,-10.18,0
24.004,-10.42,-10.18,0
24.024,-10.42,-10.3,0
24.044,-10.3,-10.18,0
24.064,-10.3,-10.18,0
24.084,-10.42,-10.18,0
24.106,-10.3,-10.18,0
24.124,-10.3,-10.3,0
24.144,-10.42,-10.3,0
24.164,-10.42,-10.3,0
24.184,-10.3,-10.3,0
24.205,-10.3,-10.3,0
24.225,-10.42,-10.3,0
24.245,-10.42,-10.3,0
24.265,-10.3,-10.3,0
24.285,-10.3,-10.3,0
24.305,-10.3,-10.3,0
24.325,-10.42,-10.3,0
24.344,-10.42,-10.3,1
24.365,-10.42,-10.3,1
24.384,-10.3,-10.3,1
24.405,-10.3,-10.3,1
24.425,-10.3,-10.3,1
24.444,-10.3,-10.3,1
24.465,-10.3,-10.3,1
24.485,-10.42,-10.3,1
24.505,-10.42,-10.3,1
24.525,-10.42,-10.3,1
24.544,-10.42,-10.3,1
24.565,-10.42,-10.3,1
24.585,-10.54,-10.42,1
24.605,-10.42,-10.42,1
24.625,-10.3,-10.18,1
24.645,-9.69,-9.57,1
24.665,-9.08,-8.96,1
24.685,-8.59,-8.1,1
24.705,-8.1,-7.12,1
24.725,-7.37,-6.63,1
24.745,-6.51,-6.27,1
24.765,-6.02,-6.15,1
24.785,-5.66,-5.9,1
24.805,-5.29,-5.66,1
24.825,-5.05,-5.54,1
24.845,-4.8,-5.41,1
24.865,-4.56,-5.29,1
24.885,-4.68,-5.17,1
24.905,-4.56,-5.17,1
24.925,-4.44,-5.05,1
24.953,-4.19,-5.05,1
24.965,-4.19,-5.05,0
24.965,-4.19,-5.05,0
24.986,-3.95,-5.05,0
25.005,-3.95,-5.05,0
25.025,-4.07,-4.92,0
25.045,-3.95,-4.92,0
25.065,-3.95,-4.8,0
25.085,-3.95,-4.8,0
25.105,-3.95,-4.8,0
25.125,-3.95,-4.8,0
25.145,-3.95,-4.8,0
25.172,-3.82,-4.8,0
25.186,-3.95,-4.8,0
25.205,-3.95,-4.8,0
25.225,-3.95,-4.8,0
25.245,-3.82,-4.8,0
25.265,-3.82,-4.8,0
25.286,-3.82,-4.68,0
25.305,-3.7,-4.68,0
25.325,-3.7,-4.68,0
25.345,-3.82,-4.68,0
25.365,-3.7,-4.68,0
25.365,-3.82,-4.68,0
25.385,-3.82,-4.68,0
25.405,-3.95,-4.68,0
25.425,-3.95,-4.8,0
25.445,-3.7,-4.8,0
25.466,-3.7,-4.68,0
25.486,-3.58,-4.68,0
25.505,-3.7,-4.56,0
25.525,-3.7,-4.56,0
25.545,-3.7,-4.56,0
25.566,-3.7,-4.56,0
25.586,-3.7,-4.56,0
25.605,-3.7,-4.56,0
25.626,-4.19,-5.05,0
25.646,-5.41,-6.15,0
25.666,-6.39,-7.0,0
25.689,-6.88,-8.22,0
25.706,-7.37,-9.08,0
25.725,-8.35,-9.57,0
25.746,-9.08,-9.69,0
25.766,-9.57,-9.93,0
25.766,-9.81,-10.06,0
25.787,-9.93,-10.06,0
25.806,-10.06,-10.06,0
25.827,-10.06,-10.18,0
25.847,-10.18,-10.18,0
25.867,-10.18,-10.18,0
25.886,-10.18,-10.3,0
25.906,-10.18,-10.3,0
25.927,-10.3,-10.18,0
25.946,-10.3,-10.3,0
25.967,-10.3,-10.3,0
25.986,-10.3,-10.18,0
26.006,-10.3,-10.3,0
26.026,-10.3,-10.18,0
26.047,-10.3,-10.3,0
26.067,-10.3,-10.3,0
26.087,-10.3,-10.3,0
26.106,-10.42,-10.3,0
26.126,-10.3,-10.3,0
26.146,-10.3,-10.3,0
26.167,-10.3,-10.3,0
26.167,-10.3,-10.3,0
26.188,-10.3,-10.3,0
26.207,-10.42,-10.3,0
26.227,-10.42,-10.3,0
26.247,-10.42,-10.3,0
26.267,-10.42,-10.3,0
26.287,-10.42,-10.3,1
26.307,-10.42,-10.3,1
26.328,-10.42,-10.3,1
26.348,-10.42,-10.3,1
26.368,-10.3,-10.3,1
26.387,-10.3,-10.3,1
26.407,-10.42,-10.3,1
26.427,-10.42,-10.3,1
26.447,-10.42,-10.3,1
26.468,-10.42,-10.42,1
26.487,-10.42,-10.3,1
26.507,-10.42,-10.42,1
26.528,-10.42,-10.42,1
26.547,-10.42,-10.42,1
26.567,-9.93,-9.81,1
26.567,-9.32,-9.32,1
26.587,-8.83,-8.47,1
26.607,-8.35,-7.49,1
26.627,-7.61,-6.88,1
26.647,-6.88,-6.51,1
26.667,-6.15,-6.27,1
26.687,-5.78,-6.02,1
26.707,-5.41,-5.78,1
26.728,-5.17,-5.66,1
26.747,-4.92,-5.54,1
26.767,-4.68,-5.41,1
26.787,-4.56,-5.29,1
26.808,-4.68,-5.17,1
26.827,-4.56,-5.17,1
26.848,-4.44,-5.05,1
26.868,-4.31,-5.05,0
26.887,-4.19,-5.05,0
26.907,-4.07,-5.05,0
26.927,-3.95,-5.05,0
26.948,-3.95,-4.92,0
26.967,-4.07,-4.92,0
26.988,-4.07,-4.8,0
27.008,-3.95,-4.8,0
27.028,-3.95,-4.8,0
27.048,-3.95,-4.8,0
27.068,-3.95,-4.8,0
27.088,-3.95,-4.8,0
27.108,-3.82,-4.8,0
27.128,-3.95,-4.8,0
27.147,-3.95,-4.8,0
27.168,-3.82,-4.8,0
27.188,-3.82,-4.8,0
27.208,-3.82,-4.68,0
27.228,-3.7,-4.8,0
27.248,-3.7,-4.68,0
27.268,-3.82,-4.68,0
27.288,-3.95,-4.68,0
27.308,-3.95,-4.68,0
27.328,-3.82,-4.68,0
27.348,-3.95,-4.8,0
27.368,-4.07,-4.8,0
27.388,-3.95,-4.8,0
27.408,-3.7,-4.8,0
27.428,-3.7,-4.68,0
27.449,-3.7,-4.68,0
27.469,-3.7,-4.68,0
27.489,-3.7,-4.56,0
27.508,-3.7,-4.56,0
27.528,-3.7,-4.56,0
27.549,-3.7,-4.68,0
27.569,-3.82,-4.68,0
27.588,-4.8,-5.66,0
27.608,-6.02,-6.63,0
27.629,-6.76,-7.49,0
27.648,-7.12,-8.71,0
27.668,-7.86,-9.32,0
27.689,-8.71,-9.57,0
27.709,-9.45,-9.81,0
27.728,-9.69,-9.93,0
27.748,-9.81,-9.93,0
27.768,-9.93,-10.06,0
27.788,-10.06,-10.06,0
27.808,-10.06,-10.18,0
27.829,-10.18,-10.06,0
27.848,-10.18,-10.18,0
27.869,-10.18,-10.18,0
27.888,-10.18,-10.3,0
27.908,-10.3,-10.3,0
27.929,-10.3,-10.3,0
27.948,-10.3,-10.3,0
27.969,-10.3,-10.3,0
27.989,-10.3,-10.3,0
28.009,-10.3,-10.3,0
28.028,-10.3,-10.18,0
28.049,-10.3,-10.3,0
28.068,-10.3,-10.3,0
28.089,-10.3,-10.3,0
28.109,-10.3,-10.3,0
28.129,-10.3,-10.3,0
28.148,-10.3,-10.3,0
28.168,-10.3,-10.3,0
28.189,-10.3,-10.3,0
28.209,-10.42,-10.3,0
28.229,-10.42,-10.3,0
28.248,-10.42,-10.3,0
28.269,-10.42,-10.3,1
28.289,-10.42,-10.3,1
28.309,-10.42,-10.3,1
28.329,-10.3,-10.3,1
28.35,-10.3,-10.3,1
28.369,-10.42,-10.3,1
28.389,-10.3,-10.3,1
28.409,-10.3,-10.3,1
28.429,-10.42,-10.3,1
28.449,-10.42,-10.3,1
28.469,-10.42,-10.3,1
28.488,-10.42,-10.3,1
28.509,-10.42,-10.3,1
28.529,-10.42,-10.3,1
28.549,-10.3,-10.18,1
28.569,-9.69,-9.57,1
28.569,-9.08,-8.83,1
28.59,-8.59,-7.98,1
28.61,-8.1,-7.12,1
28.629,-7.25,-6.63,1
28.65,-6.51,-6.39,1
28.67,-6.02,-6.15,1
28.69,-5.54,-5.9,1
28.71,-5.29,-5.66,1
28.73,-5.05,-5.54,1
28.75,-4.8,-5.41,1
28.77,-4.68,-5.29,1
28.79,-4.68,-5.29,1
28.81,-4.56,-5.17,1
28.83,-4.44,-5.05,1
28.85,-4.31,-5.05,1
28.87,-4.19,-5.05,0
28.89,-4.19,-5.05,0
28.91,-4.07,-5.05,0
28.93,-3.82,-4.92,0
28.95,-3.95,-4.92,0
28.97,-4.07,-4.92,0
28.97,-3.95,-4.8,0
28.99,-3.95,-4.8,0
29.011,-3.95,-4.8,0
29.03,,,
29.05,-3.95,-4.8,0
29.071,-3.95,-4.8,0
29.09,-3.82,-4.8,0
29.111,-4.07,-4.8,0
29.13,-4.07,-4.8,0
29.151,-3.95,-4.8,0
29.171,-3.82,-4.8,0
29.19,-3.82,-4.68,0
29.21,-3.82,-4.68,0
29.23,,,
29.251,-3.82,-4.68,0
29.27,-3.82,-4.68,0
29.29,-3.82,-4.68,0
29.31,-3.95,-4.68,0
29.33,-3.82,-4.8,0
29.35,-3.95,-4.68,0
29.37,-3.95,-4.8,0
29.383,-3.95,-4.8,0
29.405,-3.82,-4.8,0
29.423,,,
29.444,-3.7,-4.8,0
29.463,-3.7,-4.68,0
29.484,-3.7,-4.68,0
29.504,-3.7,-4.68,0
29.523,-3.7,-4.68,0
29.543,-3.7,-4.68,0
29.563,-3.7,-4.68,0
29.583,-3.7,-4.68,0
29.603,-4.19,-5.17,0
29.624,-5.41,-6.27,0
29.645,-6.39,-7.0,0
29.665,-6.88,-8.22,0
29.69,-7.37,-9.08,0
29.71,-8.35,-9.57,0
29.731,-9.08,-9.69,0
29.755,-9.57,-9.93,0
29.775,-9.81,-9.93,0
29.796,-9.93,-10.06,0
29.821,-10.06,-10.06,0
29.845,-10.06,-10.06,0
29.869,-10.06,-10.18,0
29.89,,,
29.897,-10.18,-10.18,0
29.917,-10.18,-10.18,0
29.939,-10.18,-10.18,0
29.964,-10.18,-10.18,0
29.989,-10.3,-10.3,0
30.013,-10.3,-10.3,0
30.033,,,
30.037,,,
30.057,-10.3,-10.3,0
30.077,-10.3,-10.3,0
30.097,-10.42,-10.3,0
30.117,-10.3,-10.18,0
30.137,-10.3,-10.18,0
30.157,-10.42,-10.3,0
30.181,-10.3,-10.3,0
30.202,,,
30.223,-10.3,-10.3,0
30.242,-10.3,-10.3,0
30.262,-10.3,-10.3,0
30.282,-10.3,-10.3,0
30.302,-10.3,-10.3,0
30.325,-10.42,-10.3,0
30.345,,,
30.362,-10.42,-10.3,0
30.382,-10.42,-10.3,0
30.402,-10.42,-10.3,0
30.422,-10.42,-10.3,1
30.444,-10.42,-10.3,1
30.468,-10.42,-10.3,1
30.493,-10.3,-10.3,1
30.513,,,
30.523,-10.3,-10.3,1
30.542,-10.3,-10.3,1
30.563,-10.3,-10.3,1
30.586,-10.42,-10.3,1
30.612,-10.42,-10.3,1
30.636,-10.42,-10.3,1
30.661,-10.42,-10.42,1
30.681,,,
30.692,-10.42,-10.42,1
30.712,-10.42,-10.42,1
30.732,-10.42,-10.42,1
30.755,-9.93,-9.81,1
30.775,,,
30.792,-9.32,-9.2,1
30.813,-8.83,-8.47,1
30.832,-8.35,-7.49,1
30.852,-7.73,-6.88,1
30.873,-6.88,-6.51,1
30.893,-6.27,-6.27,1
30.913,-5.66,-6.02,1
30.933,-5.41,-5.9,1
30.952,-5.05,-5.66,1
30.972,,,
30.992,-4.92,-5.54,1
31.012,-4.68,-5.29,1
31.017,-4.56,-5.29,1
31.038,,,
31.057,-4.56,-5.17,1
31.077,-4.56,-5.17,1
31.097,-4.31,-5.05,1
31.118,-4.19,-5.05,0
31.137,-4.19,-5.05,0
31.158,-4.19,-5.05,0
31.177,-3.95,-5.05,0
31.198,-3.95,-5.05,0
31.217,-4.07,-4.92,0
31.238,-4.07,-4.92,0
31.258,-3.95,-4.8,0
31.279,-3.95,-4.8,0
31.299,,,
31.318,-3.95,-4.8,0
31.337,-4.07,-4.8,0
31.357,-3.95,-4.8,0
31.377,-3.95,-4.8,0
31.398,-4.07,-4.92,0
31.417,-4.07,-4.8,0
31.438,-3.82,-4.8,0
31.458,-3.82,-4.8,0
31.478,-3.95,-4.8,0
31.498,,,
31.518,-3.82,-4.68,0
31.538,-3.7,-4.68,0
31.558,-3.82,-4.68,0
31.578,-3.95,-4.68,0
31.598,-3.82,-4.68,0
31.618,-3.95,-4.68,0
31.638,-3.95,-4.8,0
31.658,-4.07,-4.8,0
31.678,-3.95,-4.8,0
31.698,-3.7,-4.8,0
31.717,-3.7,-4.68,0
31.738,-3.7,-4.68,0
31.762,-3.7,-4.68,0
31.783,-3.7,-4.56,0
31.804,-3.7,-4.56,0
31.828,-3.7,-4.56,0
31.849,-3.58,-4.68,0
31.869,,,
31.889,-3.7,-4.68,0
31.909,-4.8,-5.78,0
31.929,-5.9,-6.63,0
31.949,-6.63,-7.61,0
31.969,-7.12,-8.83,0
31.989,-7.86,-9.45,0
32.009,-8.83,-9.69,0
32.029,-9.45,-9.81,0
32.049,-9.69,-9.93,0
32.069,,,
32.089,-9.81,-9.93,0
32.109,-9.93,-10.06,0
32.128,-10.06,-10.18,0
32.15,-10.06,-10.18,0
32.169,-10.06,-10.18,0
32.189,-10.18,-10.18,0
32.209,-10.3,-10.18,0
32.229,,,
32.25,-10.18,-10.18,0
32.27,-10.3,-10.18,0
32.29,-10.3,-10.3,0
32.311,-10.3,-10.18,0
32.329,-10.3,-10.18,0
32.352,-10.3,-10.18,0
32.376,-10.3,-10.3,0
32.398,,,
32.41,-10.42,-10.18,0
32.43,-10.3,-10.3,0
32.449,-10.3,-10.3,0
32.471,-10.3,-10.3,0
32.496,-10.3,-10.3,0
32.52,-10.42,-10.3,0
32.545,-10.3,-10.3,0
32.565,,,
32.57,-10.3,-10.3,0
32.59,-10.3,-10.3,0
32.615,-10.3,-10.3,0
32.639,-10.3,-10.3,0
32.663,-10.42,-10.3,0
32.688,-10.42,-10.3,1
32.709,,,
32.719,-10.3,-10.3,1
32.74,-10.3,-10.3,1
32.76,-10.3,-10.3,1
32.783,-10.3,-10.3,1
32.807,-10.42,-10.3,1
32.832,-10.3,-10.3,1
32.855,-10.3,-10.3,1
32.877,,,
32.88,,,
32.899,-10.42,-10.3,1
32.919,-10.42,-10.42,1
32.94,-10.42,-10.42,1
32.959,-10.42,-10.3,1
32.98,-10.42,-10.3,1
32.999,-10.42,-10.42,1
33.019,,,
33.04,-10.3,-10.18,1
33.044,,,
33.065,-9.69,-9.57,1
33.085,-9.08,-8.83,1
33.105,-8.59,-7.98,1
33.125,-8.1,-7.12,1
33.145,-7.25,-6.63,1
33.165,-6.51,-6.39,1
33.185,-6.02,-6.15,1
33.205,-5.54,-5.9,1
33.225,-5.29,-5.78,1
33.244,,,
33.265,-5.05,-5.54,1
33.285,-4.8,-5.41,1
33.305,-4.68,-5.29,1
33.325,-4.56,-5.17,1
33.345,-4.56,-5.17,1
33.365,-4.56,-5.17,1
33.385,-4.31,-5.05,1
33.405,-4.19,-5.05,0
33.425,-4.19,-5.05,0
33.445,-4.07,-5.05,0
33.462,-3.95,-4.92,0
33.482,-4.07,-4.92,0
33.503,,,
33.522,-4.07,-4.92,0
33.543,-3.95,-4.8,0
33.562,-3.95,-4.8,0
33.583,-3.95,-4.8,0
33.602,-4.07,-4.8,0
33.622,-3.95,-4.8,0
33.642,-3.95,-4.8,0
33.662,-3.95,-4.8,0
33.683,-4.07,-4.92,0
33.703,-3.82,-4.8,0
33.724,-3.82,-4.8,0
33.745,-3.82,-4.8,0
33.769,-3.82,-4.68,0
33.79,-3.82,-4.68,0
33.81,-3.82,-4.68,0
33.834,-3.95,-4.68,0
33.856,-3.82,-4.68,0
33.876,,,
33.897,-3.82,-4.68,0
33.916,-3.95,-4.8,0
33.936,-3.95,-4.8,0
33.956,-3.95,-4.8,0
33.976,-3.82,-4.8,0
33.997,-3.7,-4.68,0
34.017,-3.58,-4.68,0
34.036,-3.82,-4.56,0
34.057,-3.7,-4.68,0
34.076,,,
34.096,-3.7,-4.68,0
34.116,-3.7,-4.56,0
34.136,-3.7,-4.56,0
34.157,-3.7,-4.56,0
34.177,-4.07,-5.17,0
34.196,-5.41,-6.15,0
34.217,-6.27,-7.0,0
34.236,-6.88,-8.22,0
34.256,-7.37,-9.08,0
34.277,-8.35,-9.57,0
34.293,-9.08,-9.69,0
34.314,-9.57,-9.81,0
34.335,,,
34.354,-9.81,-9.93,0
34.374,-9.93,-10.06,0
34.394,-10.06,-10.06,0
34.414,-10.06,-10.06,0
34.434,-10.18,-10.06,0
34.454,-10.18,-10.18,0
34.477,-10.3,-10.18,0
34.503,-10.18,-10.3,0
34.522,,,
34.534,-10.18,-10.3,0
34.553,-10.3,-10.18,0
34.574,-10.3,-10.18,0
34.597,-10.3,-10.18,0
34.622,-10.3,-10.18,0
34.645,-10.3,-10.18,0
34.67,-10.42,-10.3,0
34.691,,,
34.696,-10.42,-10.3,0
34.717,-10.42,-10.3,0
34.74,-10.3,-10.3,0
34.765,-10.3,-10.3,0
34.789,-10.42,-10.3,0
34.813,-10.42,-10.3,0
34.834,,,
34.836,,,
34.856,-10.3,-10.3,0
34.877,-10.3,-10.3,0
34.896,-10.42,-10.3,0
34.916,-10.42,-10.3,0
34.937,-10.3,-10.3,0
34.957,-10.42,-10.3,0
34.982,-10.42,-10.3,1
35.002,,,
35.017,-10.42,-10.3,1
35.037,-10.3,-10.3,1
35.056,-10.3,-10.3,1
35.076,-10.3,-10.3,1
35.101,-10.3,-10.3,1
35.124,-10.3,-10.3,1
35.146,,,
35.161,-10.42,-10.3,1
35.182,-10.42,-10.3,1
35.201,-10.42,-10.42,1
35.222,-10.42,-10.42,1
35.244,-10.42,-10.3,1
35.268,-10.42,-10.3,1
35.293,-10.42,-10.42,1
35.314,,,
35.322,-9.93,-9.81,1
35.341,-9.45,-9.2,1
35.361,-8.83,-8.47,1
35.382,,,
35.401,-8.35,-7.49,1
35.422,-7.73,-6.88,1
35.442,-6.88,-6.51,1
35.461,-6.27,-6.27,1
35.482,-5.78,-6.02,1
35.502,-5.41,-5.78,1
35.51,,,
35.531,-5.17,-5.66,1
35.55,-4.92,-5.54,1
35.571,-4.8,-5.41,1
35.59,-4.68,-5.29,1
35.61,-4.68,-5.17,1
35.631,-4.56,-5.17,1
35.651,-4.44,-5.05,1
35.671,-4.31,-5.05,0
35.691,-4.19,-5.05,0
35.71,-4.07,-5.05,0
35.731,-4.07,-5.05,0
35.751,-3.95,-4.92,0
35.776,-4.19,-4.92,0
35.797,-4.07,-4.8,0
35.817,,,
35.831,-3.82,-4.92,0
35.85,-3.95,-4.8,0
35.87,-3.95,-4.8,0
35.891,-3.95,-4.8,0
35.911,-3.95,-4.8,0
35.928,-3.95,-4.8,0
35.949,,,
35.969,-4.07,-4.8,0
35.989,-3.82,-4.8,0
36.009,-3.82,-4.8,0
36.028,-3.82,-4.8,0
36.048,-3.82,-4.68,0
36.069,-3.82,-4.68,0
36.089,-3.82,-4.68,0
36.109,-3.82,-4.68,0
36.128,-3.82,-4.68,0
36.148,,,
36.168,-3.82,-4.68,0
36.189,-3.82,-4.68,0
36.209,-3.82,-4.68,0
36.229,-3.95,-4.8,0
36.249,-3.95,-4.8,0
36.269,-3.7,-4.8,0
36.288,-3.7,-4.68,0
36.309,-3.7,-4.68,0
36.329,-3.7,-4.68,0
36.349,-3.7,-4.68,0
36.37,-3.58,-4.68,0
36.389,-3.58,-4.56,0
36.409,,,
36.43,-3.7,-4.68,0
36.449,-3.7,-4.68,0
36.469,-4.8,-5.66,0
36.49,-5.9,-6.63,0
36.509,-6.63,-7.49,0
36.529,-7.12,-8.71,0
36.549,-7.86,-9.45,0
36.57,-8.83,-9.69,0
36.589,-9.45,-9.81,0
36.609,-9.69,-9.93,0
36.629,-9.81,-10.06,0
36.649,,,
36.669,-9.93,-10.06,0
36.689,-10.06,-10.06,0
36.709,-10.06,-10.18,0
36.729,-10.18,-10.18,0
36.749,-10.18,-10.18,0
36.769,,,
36.789,-10.18,-10.18,0
36.809,-10.3,-10.18,0
36.83,-10.3,-10.18,0
36.849,-10.3,-10.3,0
36.869,-10.3,-10.3,0
36.891,-10.3,-10.3,0
36.915,-10.42,-10.18,0
36.935,,,
36.949,-10.42,-10.18,0
36.969,-10.3,-10.3,0
36.99,-10.3,-10.18,0
37.009,-10.42,-10.3,0
37.034,-10.3,-10.3,0
37.058,-10.3,-10.3,0
37.079,,,
37.09,-10.42,-10.3,0
37.109,-10.42,-10.3,0
37.129,-10.3,-10.3,0
37.152,-10.3,-10.3,0
37.177,-10.42,-10.3,0
37.201,-10.42,-10.3,0
37.226,-10.42,-10.3,0
37.246,,,
37.25,,,
37.27,-10.42,-10.3,1
37.29,-10.42,-10.3,1
37.309,-10.42,-10.3,1
37.33,-10.42,-10.3,1
37.349,-10.3,-10.42,1
37.37,-10.3,-10.42,1
37.39,,,
37.41,-10.3,-10.3,1
37.43,-10.42,-10.42,1
37.45,-10.54,-10.42,1
37.47,-10.42,-10.42,1
37.489,-10.42,-10.3,1
37.512,-10.54,-10.42,1
37.537,-10.42,-10.42,1
37.559,,,
37.577,-10.42,-10.42,1
37.597,-10.3,-10.18,1
37.617,-9.69,-9.57,1
37.637,-9.08,-8.96,1
37.658,-8.59,-7.98,1
37.677,-8.1,-7.12,1
37.697,-7.25,-6.63,1
37.717,-6.51,-6.39,1
37.739,-6.02,-6.15,1
37.758,,,
37.778,-5.54,-5.9,1
37.797,-5.29,-5.66,1
37.818,-5.05,-5.54,1
37.837,-4.92,-5.41,1
37.858,-4.68,-5.29,1
37.877,-4.56,-5.17,1
37.897,-4.56,-5.17,1
37.917,-4.44,-5.17,1
37.937,-4.19,-5.05,1
37.96,-4.19,-5.05,0
37.98,-4.07,-5.05,0
38.0,-4.07,-5.05,0
38.024,-3.95,-4.92,0
38.045,-3.95,-4.92,0
38.066,,,
38.08,-3.95,-4.8,0
38.1,-3.82,-4.8,0
38.12,-3.82,-4.8,0
38.14,-3.82,-4.8,0
38.16,-3.95,-4.8,0
38.18,-3.95,-4.8,0
38.2,,,
38.22,-3.82,-4.8,0
38.24,-3.95,-4.8,0
38.26,-3.95,-4.8,0
38.281,-3.7,-4.8,0
38.3,-3.82,-4.8,0
38.32,-3.7,-4.68,0
38.34,-3.82,-4.68,0
38.36,-3.82,-4.68,0
38.38,-3.7,-4.68,0
38.401,-3.82,-4.68,0
38.421,-3.7,-4.68,0
38.441,-3.7,-4.68,0
38.46,,,
38.481,-3.82,-4.68,0
38.501,-3.82,-4.8,0
38.521,-3.95,-4.8,0
38.54,-3.82,-4.8,0
38.561,-3.7,-4.68,0
38.581,-3.58,-4.68,0
38.601,-3.7,-4.68,0
38.621,-3.7,-4.56,0
38.641,-3.7,-4.56,0
38.661,-3.7,-4.56,0
38.681,-3.7,-4.56,0
38.701,-3.7,-4.56,0
38.722,,,
38.741,-4.19,-5.17,0
38.76,-5.54,-6.15,0
38.781,-6.39,-7.0,0
38.801,-7.0,-8.35,0
38.821,-7.37,-9.2,0
38.84,-8.47,-9.57,0
38.861,-9.2,-9.69,0
38.881,-9.57,-9.93,0
38.901,-9.81,-10.06,0
38.922,-9.93,-10.06,0
38.942,,,
38.96,-10.06,-10.06,0
38.981,-10.06,-10.18,0
39.001,-10.06,-10.18,0
39.02,-10.18,-10.18,0
39.04,-10.3,-10.3,0
39.065,-10.3,-10.3,0
39.086,,,
39.101,-10.3,-10.3,0
39.121,-10.3,-10.3,0
39.14,-10.3,-10.3,0
39.161,-10.3,-10.18,0
39.184,-10.42,-10.3,0
39.209,-10.42,-10.3,0
39.233,-10.3,-10.18,0
39.254,,,
39.264,-10.42,-10.3,0
39.284,-10.42,-10.3,0
39.304,-10.42,-10.3,0
39.327,-10.42,-10.3,0
39.352,-10.42,-10.3,0
39.376,-10.42,-10.3,0
39.397,,,
39.405,-10.3,-10.3,0
39.425,,,
39.444,-10.42,-10.3,0
39.464,-10.42,-10.3,0
39.484,-10.42,-10.3,0
39.505,-10.42,-10.3,0
39.524,-10.42,-10.3,0
39.545,-10.42,-10.3,1
39.565,,,
39.584,-10.42,-10.3,1
39.606,-10.42,-10.3,1
39.625,-10.3,-10.3,1
39.644,-10.3,-10.3,1
39.664,-10.3,-10.3,1
39.688,-10.42,-10.3,1
39.713,-10.42,-10.3,1
39.733,,,
39.745,-10.42,-10.3,1
39.765,-10.42,-10.3,1
39.785,-10.42,-10.3,1
39.807,-10.42,-10.42,1
39.831,-10.42,-10.42,1
39.856,-10.42,-10.3,1
39.876,,,
39.885,-9.93,-9.81,1
39.905,-9.32,-9.2,1
39.925,-8.83,-8.47,1
39.945,,,
39.965,-8.35,-7.49,1
39.985,-7.61,-6.88,1
40.005,-6.76,-6.51,1
40.025,-6.27,-6.27,1
40.045,-5.66,-6.02,1
40.065,-5.41,-5.78,1
40.085,-5.17,-5.66,1
40.105,-4.92,-5.54,1
40.125,-4.8,-5.41,1
40.145,-4.68,-5.29,1
40.165,-4.68,-5.17,1
40.185,-4.56,-5.17,1
40.208,-4.31,-5.17,1
40.228,-4.19,-5.05,0
40.249,-4.19,-5.05,0
40.274,-4.19,-5.05,0
40.293,-4.07,-5.05,0
40.314,,,
40.325,-4.07,-5.05,0
40.345,-4.07,-5.05,0
40.365,-3.95,-4.92,0
40.385,-3.95,-4.92,0
40.406,-3.95,-4.92,0
40.426,-3.95,-4.8,0
40.446,,,
40.466,-4.07,-4.8,0
40.485,-3.95,-4.8,0
40.506,-3.95,-4.8,0
40.527,-3.95,-4.8,0
40.545,-3.95,-4.92,0
40.566,-3.82,-4.8,0
40.586,-3.95,-4.8,0
40.606,-3.95,-4.8,0
40.626,-3.95,-4.8,0
40.645,,,
40.666,-3.95,-4.68,0
40.686,-3.95,-4.8,0
40.706,-3.95,-4.68,0
40.726,-3.82,-4.68,0
40.746,-3.95,-4.68,0
40.766,-3.95,-4.8,0
40.785,-3.95,-4.8,0
40.798,-3.95,-4.8,0
40.819,-3.82,-4.8,0
40.838,,,
40.858,-3.7,-4.68,0
40.878,-3.7,-4.68,0
40.898,-3.7,-4.56,0
40.918,-3.7,-4.56,0
40.939,-3.7,-4.56,0
40.958,-3.7,-4.56,0
40.978,-3.82,-4.68,0
40.999,-3.82,-4.68,0
41.019,-4.92,-5.78,0
41.039,,,
41.059,-6.02,-6.63,0
41.078,-6.76,-7.73,0
41.099,-7.12,-8.83,0
41.119,-7.98,-9.45,0
41.139,-8.96,-9.69,0
41.159,-9.45,-9.81,0
41.179,-9.69,-9.93,0
41.198,-9.81,-10.06,0
41.219,-9.93,-10.06,0
41.239,-10.06,-10.06,0
41.26,-10.06,-10.18,0
41.285,-10.18,-10.18,0
41.31,-10.18,-10.18,0
41.33,,,
41.339,-10.3,-10.3,0
41.359,-10.3,-10.18,0
41.38,-10.3,-10.3,0
41.404,-10.3,-10.18,0
41.428,-10.3,-10.18,0
41.453,-10.3,-10.18,0
41.478,-10.42,-10.18,0
41.499,,,
41.499,,,
41.519,-10.42,-10.18,0
41.539,-10.3,-10.18,0
41.558,-10.3,-10.3,0
41.579,-10.3,-10.3,0
41.599,-10.3,-10.18,0
41.621,-10.3,-10.3,0
41.642,,,
41.66,-10.3,-10.3,0
41.68,-10.3,-10.3,0
41.7,-10.3,-10.3,0
41.72,-10.3,-10.3,0
41.74,-10.42,-10.3,0
41.759,-10.3,-10.3,0
41.789,-10.3,-10.3,0
41.809,,,
41.819,-10.42,-10.3,1
41.84,-10.42,-10.3,1
41.859,-10.3,-10.3,1
41.886,-10.3,-10.3,1
41.908,-10.3,-10.3,1
41.932,-10.3,-10.3,1
41.953,,,
41.959,-10.3,-10.3,1
41.98,,,
42.004,-10.42,-10.3,1
42.005,-10.42,-10.3,1
42.026,-10.42,-10.3,1
42.046,-10.42,-10.3,1
42.076,-10.42,-10.3,1
42.1,-10.42,-10.42,1
42.12,,,
42.125,-10.42,-10.3,1
42.149,,,
42.166,-10.18,-10.06,1
42.185,-9.57,-9.45,1
42.205,-9.08,-8.83,1
42.226,-8.59,-7.86,1
42.246,-7.98,-7.12,1
42.266,-7.12,-6.63,1
42.286,-6.51,-6.27,1
42.305,-6.02,-6.15,1
42.325,-5.54,-5.9,1
42.348,-5.29,-5.66,1
42.369,-5.05,-5.54,1
42.391,-4.8,-5.41,1
42.411,-4.8,-5.29,1
42.435,-4.56,-5.17,1
42.457,-4.56,-5.17,1
42.477,-4.56,-5.17,1
42.495,-4.31,-5.05,1
42.522,-4.19,-5.05,0
42.542,-4.19,-5.05,0
42.563,,,
42.572,-4.07,-5.05,0
42.591,-4.07,-5.05,0
42.613,-4.07,-4.92,0
42.634,-4.07,-4.8,0
42.655,-4.07,-4.92,0
42.674,-3.95,-4.8,0
42.694,,,
42.721,-3.95,-4.8,0
42.732,-4.07,-4.8,0
42.752,-4.07,-4.8,0
42.772,-4.07,-4.92,0
42.792,-4.07,-4.92,0
42.812,-4.19,-4.92,0
