Time (s),Pressure 1 (kPa),Pressure 2 (kPa),Switch State
0.115,-7.49,-7.98,1
0.136,-7.49,-7.98,1
0.156,-7.61,-7.86,1
0.176,-7.61,-7.86,1
0.196,-7.61,-7.86,1
0.218,-7.61,-7.86,1
0.236,-7.61,-7.86,1
0.256,-7.61,-7.86,1
0.276,-7.61,-7.86,1
0.295,-7.61,-7.86,1
0.315,-7.61,-7.86,1
0.336,-7.61,-7.86,1
0.355,-7.49,-7.86,1
0.376,-7.61,-7.86,1
0.396,-7.49,-7.98,1
0.416,-7.61,-7.86,1
0.436,-7.61,-7.86,1
0.456,-7.61,-7.86,1
0.475,-7.61,-7.86,1
0.496,-7.49,-7.98,1
0.515,-7.61,-7.86,1
0.515,-7.61,-7.86,1
0.536,-7.61,-7.86,1
0.556,-7.49,-7.86,1
0.576,-7.61,-7.86,1
0.596,-7.61,-7.86,1
0.618,-7.61,-7.86,1
0.636,-7.49,-7.86,1
0.656,-7.61,-7.98,1
0.678,-7.61,-7.86,1
0.696,-7.61,-7.86,1
0.716,-7.61,-7.86,1
0.736,-7.61,-7.86,1
0.756,-7.61,-7.98,1
0.776,-7.49,-7.98,1
0.796,-7.61,-7.86,1
0.816,-7.61,-7.86,1
0.836,-7.61,-7.86,1
0.856,-7.61,-7.86,1
0.876,-7.49,-7.86,1
0.896,-7.49,-7.98,1
0.916,-7.61,-7.86,1
0.936,-7.61,-7.86,1
0.957,-7.49,-7.86,1
0.977,-7.61,-7.98,1
0.997,-7.49,-7.86,1
1.017,-7.61,-7.98,1
1.037,-7.49,-7.86,1
1.057,-7.49,-7.86,1
1.077,-7.49,-7.86,1
1.097,-7.61,-7.86,1
1.116,-7.49,-7.86,1
1.137,-7.61,-7.86,1
1.156,-7.61,-7.86,1
1.177,-7.61,-7.86,1
1.197,-7.61,-7.86,1
1.217,-7.61,-7.98,1
1.237,-7.61,-7.86,1
1.256,-7.61,-7.86,1
1.277,-7.61,-7.86,1
1.297,-7.61,-7.98,1
1.317,-7.49,-7.86,1
1.337,-7.49,-7.86,1
1.357,-7.61,-7.86,1
1.377,-7.61,-7.86,1
1.397,-7.61,-7.86,1
1.417,-7.61,-7.86,1
1.437,-7.61,-7.86,1
1.457,-7.61,-7.86,1
1.478,-7.49,-7.86,1
1.497,-7.49,-7.86,1
1.517,-7.61,-7.86,1
1.537,-7.61,-7.98,1
1.557,-7.49,-7.86,1
1.577,-7.61,-7.86,1
1.597,-7.61,-7.86,1
1.617,-7.61,-7.86,1
1.637,-7.61,-7.86,1
1.657,-7.49,-7.86,1
1.677,-7.61,-7.86,1
1.697,-7.61,-7.86,1
1.717,-7.49,-7.86,1
1.738,-7.49,-7.86,1
1.757,-7.61,-7.86,1
1.777,-7.61,-7.86,1
1.798,-7.49,-7.86,1
1.817,-7.61,-7.86,1
1.837,-7.61,-7.86,1
1.857,-7.61,-7.86,1
1.877,-7.49,-7.86,1
1.897,-7.61,-7.86,1
1.917,-7.49,-7.86,1
1.937,-7.61,-7.86,1
1.957,-7.61,-7.86,1
1.977,-7.49,-7.86,1
1.997,-7.49,-7.98,1
2.018,-7.49,-7.86,1
2.037,-7.61,-7.86,1
2.057,-7.49,-7.86,1
2.078,-7.49,-7.86,1
2.097,-7.61,-7.86,1
2.117,-7.49,-7.86,1
2.138,-7.49,-7.86,1
2.158,-7.61,-7.86,1
2.178,-7.49,-7.86,1
2.198,-7.61,-7.86,1
2.217,-7.61,-7.86,1
2.237,-7.61,-7.98,1
2.257,-7.61,-7.98,1
2.277,-7.49,-7.86,1
2.298,-7.61,-7.86,1
2.317,-7.61,-7.86,1
2.337,-7.61,-7.86,1
2.358,-7.61,-7.86,1
2.378,-7.61,-7.86,1
2.398,-7.61,-7.86,1
2.418,-7.49,-7.86,1
2.437,-7.61,-7.86,1
2.458,-7.61,-7.86,1
2.478,-7.61,-7.86,1
2.498,-7.61,-7.86,1
2.518,-7.61,-7.98,1
2.538,-7.61,-7.86,1
2.558,-7.61,-7.86,1
2.578,-7.49,-7.86,1
2.599,-7.49,-7.86,1
2.618,-7.49,-7.86,1
2.639,-7.49,-7.86,1
2.659,-7.61,-7.98,1
2.679,-7.49,-7.86,1
2.698,-7.61,-7.86,1
2.718,-7.61,-7.86,1
2.738,-7.61,-7.86,1
2.758,-7.49,-7.98,1
2.778,-7.49,-7.86,1
2.798,-7.61,-7.86,1
2.818,-7.61,-7.86,1
2.838,-7.61,-7.86,1
2.859,-7.61,-7.86,1
2.878,-7.61,-7.98,1
2.899,-7.61,-7.86,1
2.918,-7.61,-7.86,1
2.938,-7.61,-7.98,1
2.958,-7.49,-7.86,1
2.978,-7.49,-7.86,1
2.998,-7.49,-7.86,1
3.019,-7.49,-7.86,1
3.039,-7.49,-7.86,1
3.058,-7.61,-7.86,1
3.078,-7.61,-7.86,1
3.098,-7.61,-7.86,1
3.118,-7.49,-7.86,1
3.139,-7.49,-7.86,1
3.158,-7.61,-7.86,1
3.179,-7.61,-7.86,1
3.198,-7.61,-7.86,1
3.218,-7.61,-7.98,1
3.238,-7.61,-7.86,1
3.258,-7.61,-7.86,1
3.278,-7.61,-7.86,1
3.298,-7.61,-7.86,1
3.318,-7.49,-7.86,1
3.318,-7.61,-7.86,1
3.339,-7.49,-7.86,1
3.358,-7.49,-7.86,1
3.378,-7.49,-7.86,1
3.398,-7.37,-7.86,1
3.419,-7.25,-7.98,1
3.438,-7.25,-7.86,1
3.458,-7.37,-7.86,1
3.479,-7.37,-7.86,1
3.499,-7.37,-7.86,1
3.518,-7.37,-7.86,1
3.539,-7.49,-7.86,1
3.559,-7.49,-7.86,1
3.579,-7.49,-7.86,1
3.598,-7.49,-7.86,1
3.618,-7.49,-7.86,1
3.638,-7.61,-7.86,1
3.658,-7.49,-7.86,1
3.679,-7.49,-7.86,1
3.698,-7.49,-7.86,1
3.718,-7.49,-7.86,1
3.718,-7.61,-8.1,1
3.739,-7.49,-8.47,1
3.758,-7.61,-8.71,1
3.778,-7.49,-8.96,1
3.798,-7.49,-8.83,1
3.818,-7.61,-8.59,1
3.839,-7.61,-8.35,1
3.858,-7.61,-8.22,1
3.879,-7.61,-8.22,1
3.898,-7.49,-8.1,1
3.918,-7.49,-7.98,1
3.938,-7.49,-7.98,1
3.959,-7.49,-7.98,1
3.979,-7.49,-7.98,1
3.999,-7.61,-7.98,1
4.018,-7.61,-7.98,1
4.039,-7.49,-7.98,1
4.059,-7.61,-7.98,1
4.078,-7.61,-7.86,1
4.098,-7.61,-7.98,1
4.119,-7.61,-7.86,1
4.119,-7.49,-7.86,1
4.139,-7.61,-7.86,1
4.159,-7.61,-7.86,1
4.179,-7.49,-7.86,1
4.199,-7.49,-7.86,1
4.22,-7.61,-7.86,1
4.24,-7.61,-7.86,1
4.259,-7.61,-7.86,1
4.279,-7.49,-7.86,1
4.299,-7.61,-7.86,1
4.319,-7.61,-7.86,1
4.339,-7.49,-7.98,1
4.36,-7.49,-7.86,1
4.379,-7.49,-7.86,1
4.399,-7.61,-7.98,1
4.419,-7.49,-7.86,1
4.439,-7.49,-7.86,1
4.459,-7.49,-7.86,1
4.479,-7.61,-7.86,1
4.499,-7.61,-7.86,1
4.519,-7.49,-7.98,1
4.54,-7.49,-7.86,1
4.559,-7.49,-7.86,1
4.579,-7.49,-7.98,1
4.6,-7.49,-7.86,1
4.619,-7.49,-7.86,1
4.639,-7.25,-7.25,1
4.66,-6.27,-6.15,1
4.679,-5.29,-5.29,1
4.7,-4.31,-4.68,1
4.719,-3.58,-4.19,1
4.74,-2.85,-3.7,1
4.76,-2.6,-3.34,1
4.779,-2.48,-2.97,1
4.799,-1.75,-2.72,1
4.819,-1.5,-2.48,0
4.839,-1.38,-2.36,0
4.86,-1.26,-2.24,0
4.879,-1.26,-2.11,0
4.899,-0.65,-1.99,0
4.919,-0.65,-1.75,0
4.94,-0.53,-1.75,0
4.96,-0.77,-1.63,0
4.98,-0.65,-1.63,0
4.999,-0.4,-1.63,0
5.02,-0.28,-1.5,0
5.04,-0.16,-1.5,0
5.06,-0.4,-1.5,0
5.08,-0.4,-1.38,0
5.1,-0.16,-1.5,0
5.12,-0.28,-1.38,0
5.14,-0.28,-1.38,0
5.159,-0.53,-1.26,0
5.179,-0.28,-1.26,0
5.2,0.09,-1.26,0
5.22,0.09,-1.26,0
5.24,-0.04,-1.14,0
5.26,-1.5,-2.85,0
5.28,-3.58,-4.68,0
5.3,-5.17,-7.25,0
5.32,-7.25,-9.2,0
5.341,-9.32,-10.06,0
5.36,-10.06,-10.54,0
5.38,-10.54,-10.79,0
5.401,-10.91,-11.03,0
5.42,-11.03,-11.03,0
5.441,-11.16,-11.16,0
5.46,-11.16,-11.28,0
5.48,-11.28,-11.16,0
5.501,-11.28,-11.28,0
5.52,-11.4,-11.28,0
5.54,-11.28,-11.28,0
5.56,-11.4,-11.28,0
5.581,-11.4,-11.28,0
5.601,-11.4,-11.4,0
5.62,-11.4,-11.4,0
5.64,-11.4,-11.4,0
5.66,-11.4,-11.4,0
5.68,-11.4,-11.4,1
5.7,-11.4,-11.4,1
5.72,-11.4,-11.4,1
5.72,-11.4,-11.4,1
5.74,-11.4,-11.4,1
5.76,-11.4,-11.4,1
5.78,-11.52,-11.4,1
5.8,-11.4,-11.4,1
5.82,-11.52,-11.4,1
5.84,-11.16,-11.03,1
5.86,-10.54,-10.3,1
5.881,-9.81,-8.59,1
5.901,-8.1,-7.12,1
5.92,-6.51,-6.15,1
5.94,-5.29,-5.41,1
5.96,-4.44,-4.8,1
5.98,-3.82,-4.19,1
6.001,-3.46,-3.82,1
6.021,-2.85,-3.46,1
6.041,-2.36,-3.21,0
6.06,-2.11,-2.97,0
6.08,-1.87,-2.85,0
6.101,-1.87,-2.6,0
6.12,-1.26,-2.48,0
6.14,-1.26,-2.24,0
6.16,-1.01,-2.11,0
6.18,-1.01,-1.99,0
6.201,-1.14,-1.99,0
6.221,-0.89,-1.87,0
6.241,-0.65,-1.87,0
6.261,-0.53,-1.75,0
6.281,-0.65,-1.75,0
6.3,-0.77,-1.63,0
6.32,-0.4,-1.63,0
6.341,-0.4,-1.63,0
6.36,-0.53,-1.63,0
6.381,-0.65,-1.5,0
6.401,-0.65,-1.38,0
6.42,-0.16,-1.38,0
6.441,-0.04,-1.38,0
6.461,-0.16,-1.38,0
6.481,-1.87,-2.97,0
6.5,-3.82,-4.68,0
6.521,-5.29,-7.37,0
6.521,-7.49,-9.32,0
6.541,-9.45,-10.06,0
6.561,-10.06,-10.54,0
6.581,-10.67,-10.79,0
6.601,-10.91,-11.03,0
6.621,-11.16,-11.03,0
6.641,-11.16,-11.16,0
6.662,-11.28,-11.16,0
6.681,-11.28,-11.28,0
6.701,-11.28,-11.28,0
6.721,-11.4,-11.28,0
6.741,-11.28,-11.28,0
6.761,-11.4,-11.28,0
6.781,-11.4,-11.4,0
6.801,-11.4,-11.4,0
6.821,-11.4,-11.28,0
6.841,-11.4,-11.4,0
6.862,-11.4,-11.4,0
6.881,-11.4,-11.4,1
6.901,-11.4,-11.4,1
6.921,-11.4,-11.4,1
6.941,-11.4,-11.4,1
6.961,-11.4,-11.4,1
6.981,-11.52,-11.4,1
7.002,-11.4,-11.4,1
7.022,-11.52,-11.4,1
7.041,-11.52,-11.4,1
7.061,-11.16,-11.03,1
7.081,-10.54,-10.3,1
7.101,-9.69,-8.59,1
7.121,-7.86,-7.12,1
7.141,-6.39,-6.15,1
7.161,-5.29,-5.41,1
7.181,-4.44,-4.8,1
7.202,-3.82,-4.19,1
7.222,-3.46,-3.82,1
7.241,-2.97,-3.46,1
7.261,-2.48,-3.21,0
7.282,-2.11,-2.97,0
7.301,-1.87,-2.72,0
7.321,-1.75,-2.6,0
7.341,-1.63,-2.36,0
7.362,-1.38,-2.24,0
7.382,-1.01,-2.11,0
7.401,-1.01,-1.99,0
7.421,-1.26,-1.99,0
7.442,-1.01,-1.87,0
7.461,-0.77,-1.87,0
7.481,-0.53,-1.75,0
7.501,-0.65,-1.63,0
7.521,-0.77,-1.63,0
7.541,-0.65,-1.63,0
7.561,-0.65,-1.5,0
7.582,-0.53,-1.5,0
7.602,-0.65,-1.38,0
7.621,-0.65,-1.38,0
7.642,-0.28,-1.38,0
7.661,-0.16,-1.38,0
7.681,-0.28,-1.38,0
7.701,-1.99,-3.09,0
7.721,-3.95,-4.8,0
7.722,-5.41,-7.49,0
7.743,-7.61,-9.32,0
7.763,-9.32,-10.18,0
7.782,-10.18,-10.54,0
7.802,-10.67,-10.79,0
7.823,-10.91,-10.91,0
7.843,-10.91,-11.16,0
7.862,-11.03,-11.16,0
7.883,-11.16,-11.28,0
7.903,-11.28,-11.28,0
7.923,-11.28,-11.28,0
7.943,-11.4,-11.28,0
7.963,-11.28,-11.28,0
7.983,-11.4,-11.28,0
8.003,-11.28,-11.4,0
8.022,-11.4,-11.4,0
8.043,-11.28,-11.4,0
8.063,-11.4,-11.4,0
8.083,-11.4,-11.4,0
8.103,-11.4,-11.4,1
8.122,-11.4,-11.4,1
8.143,-11.4,-11.4,1
8.163,-11.4,-11.4,1
8.182,-11.4,-11.4,1
8.203,-11.4,-11.4,1
8.222,-11.4,-11.4,1
8.243,-11.4,-11.4,1
8.263,-11.52,-11.4,1
8.282,-11.03,-11.03,1
8.303,-10.54,-10.18,1
8.323,-9.57,-8.47,1
8.343,-7.86,-7.12,1
8.363,-6.51,-6.15,1
8.383,-5.29,-5.41,1
8.403,-4.56,-4.68,1
8.423,-3.7,-4.19,1
8.443,-3.46,-3.82,1
8.464,-3.09,-3.46,1
8.483,-2.48,-3.21,0
8.503,-2.11,-2.97,0
8.525,-1.75,-2.72,0
8.546,-1.75,-2.6,0
8.566,-1.63,-2.36,0
8.585,-1.38,-2.24,0
8.605,-1.14,-2.11,0
8.626,-0.89,-2.11,0
8.646,-1.14,-2.11,0
8.665,-1.01,-1.99,0
8.686,-0.89,-1.99,0
8.705,-0.65,-1.87,0
8.726,-0.53,-1.75,0
8.745,-0.77,-1.63,0
8.766,-0.77,-1.63,0
8.785,-0.77,-1.75,0
8.806,-0.53,-1.63,0
8.826,-0.4,-1.63,0
8.846,-0.53,-1.63,0
8.866,-0.4,-1.5,0
8.885,-0.28,-1.38,0
8.906,-0.16,-1.38,0
8.925,-1.99,-3.21,0
8.925,-3.95,-5.05,0
8.946,-5.41,-7.61,0
8.966,-7.61,-9.45,0
8.986,-9.32,-10.18,0
9.006,-10.06,-10.67,0
9.026,-10.54,-10.79,0
9.046,-10.79,-11.03,0
9.066,-11.16,-11.16,0
9.086,-11.16,-11.16,0
9.106,-11.28,-11.16,0
9.126,-11.28,-11.28,0
9.146,-11.28,-11.28,0
9.166,-11.4,-11.28,0
9.186,-11.4,-11.28,0
9.206,-11.4,-11.28,0
9.226,-11.28,-11.4,0
9.246,-11.4,-11.4,0
9.266,-11.4,-11.4,0
9.286,-11.4,-11.28,0
9.306,-11.4,-11.4,0
9.325,-11.4,-11.4,1
9.325,-11.4,-11.4,1
9.346,-11.4,-11.4,1
9.366,-11.4,-11.4,1
9.386,-11.4,-11.4,1
9.406,-11.52,-11.4,1
9.426,-11.4,-11.4,1
9.446,-11.4,-11.4,1
9.466,-11.4,-11.4,1
9.485,-11.03,-11.03,1
9.506,-10.42,-10.06,1
9.526,-9.2,-8.22,1
9.546,-7.49,-6.88,1
9.565,-5.9,-6.02,1
9.586,-4.8,-5.17,1
9.605,-4.07,-4.56,1
9.625,-3.58,-4.07,1
9.646,-3.21,-3.58,1
9.666,-2.6,-3.34,1
9.686,-2.24,-3.09,0
9.705,-1.75,-2.85,0
9.726,-1.87,-2.48,0
9.726,-1.5,-2.36,0
9.746,-1.26,-2.24,0
9.767,-1.14,-1.99,0
9.786,-0.89,-2.11,0
9.807,-1.01,-1.99,0
9.826,-1.01,-1.87,0
9.846,-0.77,-1.87,0
9.866,-0.53,-1.75,0
9.886,-0.53,-1.5,0
9.906,-0.65,-1.5,0
9.926,-0.53,-1.63,0
9.946,-0.65,-1.63,0
9.966,-0.4,-1.5,0
9.986,-0.53,-1.5,0
10.006,-0.53,-1.38,0
10.026,-0.28,-1.38,0
10.046,-0.16,-1.38,0
10.066,-1.14,-2.36,0
10.087,-3.21,-4.19,0
10.107,-5.05,-5.78,0
10.126,-6.76,-8.35,0
10.146,-9.2,-9.81,0
10.167,-10.06,-10.42,0
10.187,-10.67,-10.67,0
10.207,-10.79,-10.91,0
10.226,-11.03,-11.03,0
10.247,-11.16,-11.16,0
10.267,-11.28,-11.28,0
10.286,-11.28,-11.28,0
10.306,-11.28,-11.28,0
10.327,-11.4,-11.4,0
10.346,-11.28,-11.28,0
10.367,-11.4,-11.28,0
10.386,-11.4,-11.28,0
10.406,-11.4,-11.4,0
10.426,-11.4,-11.4,0
10.447,-11.4,-11.4,0
10.467,-11.4,-11.4,0
10.487,-11.4,-11.4,1
10.507,-11.4,-11.4,1
10.527,-11.4,-11.4,1
10.548,-11.4,-11.4,1
10.567,-11.52,-11.4,1
10.587,-11.4,-11.4,1
10.607,-11.4,-11.4,1
10.628,-11.4,-11.52,1
10.647,-11.16,-11.03,1
10.667,-10.54,-10.54,1
10.687,-9.69,-9.32,1
10.707,-7.98,-7.86,1
10.728,-6.39,-7.25,1
10.747,-5.05,-6.51,1
10.767,-4.31,-6.27,1
10.788,-3.58,-6.15,1
10.807,-3.46,-5.29,1
10.827,-2.85,-4.68,1
10.847,-2.48,-4.07,1
10.867,-1.99,-3.7,1
10.887,-1.63,-3.34,0
10.907,-1.75,-3.09,0
10.927,-1.26,-2.72,0
10.947,-1.26,-2.6,0
10.967,-1.01,-2.36,0
10.987,-1.14,-2.11,0
11.008,-1.01,-2.11,0
11.027,-0.77,-2.11,0
11.047,-0.77,-1.99,0
11.067,-0.4,-1.87,0
11.087,-0.77,-1.75,0
11.107,-0.65,-1.63,0
11.127,-0.65,-1.63,0
11.147,-0.53,-1.63,0
11.167,-0.53,-1.63,0
11.188,-0.53,-1.5,0
11.208,-0.28,-1.5,0
11.227,-0.28,-1.26,0
11.248,-0.77,-1.99,0
11.267,-2.85,-3.82,0
11.287,-4.56,-6.15,0
11.307,-5.78,-8.59,0
11.327,-7.25,-9.81,0
11.347,-9.45,-10.42,0
11.367,-10.18,-10.79,0
11.388,-10.67,-10.91,0
11.407,-10.91,-11.03,0
11.427,-11.03,-11.16,0
11.447,-11.16,-11.16,0
11.467,-11.28,-11.28,0
11.487,-11.28,-11.28,0
11.508,-11.28,-11.28,0
11.527,-11.28,-11.4,0
11.547,-11.28,-11.28,0
11.567,-11.4,-11.4,0
11.587,-11.4,-11.4,0
11.607,-11.4,-11.4,0
11.627,-11.4,-11.4,1
11.647,-11.4,-11.4,1
11.668,-11.4,-11.4,1
11.687,-11.4,-11.4,1
11.707,-11.4,-11.52,1
11.727,-11.4,-11.4,1
11.747,-11.4,-11.4,1
11.768,-11.52,-11.4,1
11.788,-11.52,-11.4,1
11.807,-11.4,-11.52,1
11.827,-11.28,-11.16,1
11.848,-10.67,-10.67,1
11.867,-9.81,-9.69,1
11.888,-8.22,-8.22,1
11.908,-6.51,-6.88,1
11.927,-5.29,-5.78,1
11.947,-4.31,-5.17,1
11.967,-3.82,-4.56,1
11.987,-3.34,-4.07,1
12.008,-2.72,-3.7,1
12.028,-2.36,-3.34,1
12.048,-1.75,-2.97,1
12.067,-1.87,-2.85,1
12.088,-1.5,-2.6,0
12.108,-1.38,-2.48,0
12.127,-1.14,-2.36,0
12.148,-1.01,-2.11,0
12.168,-1.01,-1.87,0
12.188,-0.89,-1.87,0
12.208,-0.77,-1.75,0
12.228,-0.53,-1.75,0
12.248,-0.65,-1.75,0
12.268,-0.65,-1.63,0
12.287,-0.65,-1.38,0
12.308,-0.53,-1.5,0
12.328,-0.28,-1.38,0
12.348,-0.4,-1.38,0
12.368,-0.16,-1.5,0
12.388,-0.16,-1.38,0
12.407,-0.28,-1.26,0
12.428,-0.28,-1.5,0
12.448,-2.36,-3.34,0
12.468,-4.44,-5.29,0
12.488,-5.9,-8.1,0
12.508,-8.22,-9.69,0
12.528,-9.81,-10.3,0
12.528,-10.54,-10.67,0
12.548,-10.91,-10.91,0
12.568,-10.91,-11.03,0
12.588,-11.16,-11.16,0
12.608,-11.16,-11.16,0
12.628,-11.28,-11.28,0
12.649,-11.28,-11.28,0
12.668,-11.4,-11.28,0
12.688,-11.4,-11.28,0
12.708,-11.4,-11.28,0
12.729,-11.4,-11.4,0
12.748,-11.4,-11.4,0
12.768,-11.4,-11.4,1
12.788,-11.4,-11.4,1
12.808,-11.52,-11.4,1
12.828,-11.4,-11.4,1
12.848,-11.4,-11.4,1
12.869,-11.4,-11.4,1
12.888,-11.4,-11.4,1
12.908,-11.4,-11.4,1
12.928,-11.52,-11.4,1
12.948,-11.52,-11.52,1
12.968,-11.52,-11.52,1
12.989,-11.4,-11.28,1
13.008,-10.91,-10.79,1
13.029,-10.18,-9.57,1
13.049,-8.59,-7.86,1
13.068,-6.88,-6.51,1
13.089,-5.41,-5.66,1
13.108,-4.68,-4.8,1
13.128,-3.7,-4.44,1
13.149,-3.46,-3.95,1
13.168,-2.97,-3.58,1
13.188,-2.36,-3.34,1
13.208,-1.99,-2.97,1
13.229,-1.63,-2.72,1
13.248,-1.63,-2.6,0
13.268,-1.38,-2.48,0
13.288,-1.26,-2.24,0
13.308,-0.89,-2.11,0
13.329,-1.01,-1.99,0
13.329,-1.01,-1.75,0
13.349,-0.65,-1.75,0
13.369,-0.65,-1.75,0
13.389,-0.4,-1.75,0
13.409,-0.65,-1.63,0
13.429,-0.77,-1.63,0
13.449,-0.65,-1.38,0
13.469,-0.4,-1.38,0
13.489,-0.28,-1.5,0
13.509,-0.4,-1.38,0
13.529,-0.16,-1.38,0
13.549,-0.28,-1.38,0
13.569,-0.28,-1.14,0
13.589,-2.11,-2.97,0
13.609,-4.31,-4.8,0
13.629,-5.66,-7.73,0
13.649,-7.98,-9.45,0
13.669,-9.69,-10.18,0
13.689,-10.42,-10.54,0
13.709,-10.79,-10.91,0
13.729,-10.91,-11.03,0
13.75,-11.16,-11.16,0
13.77,-11.16,-11.16,0
13.789,-11.28,-11.28,0
13.81,-11.28,-11.28,0
13.83,-11.4,-11.28,0
13.849,-11.4,-11.28,0
13.87,-11.4,-11.4,0
13.89,-11.4,-11.4,0
13.91,-11.4,-11.4,0
13.929,-11.4,-11.4,1
13.949,-11.4,-11.4,1
13.97,-11.4,-11.4,1
13.99,-11.4,-11.4,1
14.009,-11.4,-11.4,1
14.029,-11.4,-11.4,1
14.049,-11.4,-11.4,1
14.07,-11.4,-11.4,1
14.089,-11.52,-11.4,1
14.109,-11.4,-11.4,1
14.13,-11.52,-11.52,1
14.15,-11.4,-11.28,1
14.17,-10.91,-10.79,1
14.19,-10.18,-9.81,1
14.21,-8.96,-7.98,1
14.231,-7.12,-6.76,1
14.251,-5.66,-5.78,1
14.27,-4.8,-5.05,1
14.291,-3.95,-4.56,1
14.31,-3.46,-3.95,1
14.331,-3.09,-3.7,1
14.35,-2.48,-3.34,1
14.37,-2.11,-2.97,1
14.391,-1.63,-2.72,1
14.41,-1.63,-2.6,0
14.43,-1.38,-2.48,0
14.451,-1.26,-2.24,0
14.47,-1.14,-2.11,0
14.49,-0.89,-1.87,0
14.511,-1.01,-1.87,0
14.53,-0.77,-1.75,0
14.55,-0.65,-1.75,0
14.571,-0.53,-1.63,0
14.591,-0.65,-1.63,0
14.611,-0.77,-1.5,0
14.63,-0.65,-1.38,0
14.651,-0.53,-1.38,0
14.671,-0.16,-1.38,0
14.691,-0.53,-1.38,0
14.71,-0.16,-1.38,0
14.731,-0.28,-1.38,0
14.751,-0.4,-1.14,0
14.771,-1.87,-2.72,0
14.791,-3.82,-4.56,0
14.811,-5.41,-7.37,0
14.831,-7.49,-9.2,0
14.851,-9.45,-10.06,0
14.871,-10.3,-10.54,0
14.89,-10.67,-10.91,0
14.911,-10.91,-11.03,0
14.931,-11.16,-11.16,0
14.951,-11.16,-11.16,0
14.971,-11.28,-11.28,0
14.991,-11.28,-11.28,0
15.011,-11.4,-11.28,0
15.031,-11.28,-11.4,0
15.051,-11.4,-11.4,0
15.072,-11.28,-11.4,0
15.091,-11.4,-11.4,0
15.111,-11.4,-11.4,0
15.131,-11.4,-11.4,1
15.151,-11.4,-11.4,1
15.172,-11.4,-11.4,1
15.191,-11.4,-11.4,1
15.211,-11.4,-11.4,1
15.231,-11.4,-11.52,1
15.251,-11.4,-11.4,1
15.272,-11.4,-11.4,1
15.292,-11.4,-11.4,1
15.312,-11.52,-11.52,1
15.331,-11.4,-11.4,1
15.351,-11.03,-10.91,1
15.371,-10.3,-9.93,1
15.391,-9.32,-8.35,1
15.412,-7.37,-6.88,1
15.431,-5.78,-5.9,1
15.451,-4.8,-5.17,1
15.472,-4.07,-4.56,1
15.492,-3.34,-4.19,1
15.512,-3.09,-3.7,1
15.531,-2.72,-3.34,1
15.552,-2.24,-3.09,1
15.571,-1.75,-2.85,1
15.592,-1.63,-2.6,0
15.612,-1.38,-2.48,0
15.631,-1.14,-2.36,0
15.652,-1.26,-2.11,0
15.672,-0.89,-1.99,0
15.691,-1.01,-1.87,0
15.711,-0.89,-1.75,0
15.731,-0.65,-1.75,0
15.731,-0.65,-1.87,0
15.752,-0.4,-1.63,0
15.772,-0.65,-1.5,0
15.792,-0.65,-1.5,0
15.811,-0.4,-1.38,0
15.832,-0.28,-1.38,0
15.852,-0.28,-1.5,0
15.872,-0.28,-1.38,0
15.892,-0.16,-1.26,0
15.912,-0.28,-1.26,0
15.932,-1.38,-2.36,0
15.952,-3.7,-4.31,0
15.972,-5.29,-6.88,0
15.992,-7.12,-8.96,0
16.012,-9.32,-9.93,0
16.032,-10.18,-10.54,0
16.051,-10.67,-10.79,0
16.072,-10.91,-11.03,0
16.091,-11.16,-11.03,0
16.111,-11.16,-11.16,0
16.132,-11.28,-11.16,0
16.132,-11.28,-11.28,0
16.152,-11.4,-11.28,0
16.173,-11.4,-11.28,0
16.193,-11.4,-11.28,0
16.212,-11.4,-11.28,0
16.233,-11.4,-11.4,0
16.253,-11.4,-11.4,0
16.273,-11.52,-11.4,1
16.292,-11.4,-11.4,1
16.313,-11.4,-11.4,1
16.332,-11.4,-11.4,1
16.353,-11.4,-11.4,1
16.372,-11.4,-11.4,1
16.392,-11.4,-11.4,1
16.413,-11.4,-11.4,1
16.433,-11.52,-11.4,1
16.452,-11.4,-11.4,1
16.472,-11.4,-11.4,1
16.492,-11.16,-11.03,1
16.513,-10.42,-10.18,1
16.533,-9.57,-8.59,1
16.553,-7.73,-7.0,1
16.574,-6.27,-6.02,1
16.593,-4.92,-5.17,1
16.613,-4.31,-4.68,1
16.633,-3.46,-4.31,1
16.653,-3.21,-3.82,1
16.673,-2.85,-3.34,1
16.693,-2.24,-3.09,1
16.714,-1.87,-2.85,1
16.733,-1.5,-2.6,1
16.753,-1.5,-2.48,0
16.773,-1.38,-2.36,0
16.793,-1.14,-2.11,0
16.814,-1.01,-1.99,0
16.836,-0.89,-1.87,0
16.854,-1.01,-1.75,0
16.873,-0.77,-1.75,0
16.893,-0.65,-1.75,0
16.913,-0.4,-1.63,0
16.933,-0.65,-1.5,0
16.954,-0.89,-1.5,0
16.974,-0.53,-1.38,0
16.994,-0.53,-1.26,0
17.014,-0.16,-1.38,0
17.034,-0.4,-1.5,0
17.054,-0.4,-1.38,0
17.074,-0.28,-1.26,0
17.094,-1.26,-2.24,0
17.114,-3.34,-3.95,0
17.134,-5.05,-5.78,0
17.154,-6.88,-8.59,0
17.173,-8.96,-9.81,0
17.193,-10.18,-10.3,0
17.214,-10.54,-10.79,0
17.233,-10.79,-11.03,0
17.254,-11.03,-11.03,0
17.274,-11.16,-11.16,0
17.294,-11.28,-11.16,0
17.314,-11.28,-11.28,0
17.334,-11.4,-11.28,0
17.334,-11.28,-11.28,0
17.355,-11.4,-11.4,0
17.374,-11.4,-11.28,0
17.394,-11.4,-11.4,0
17.414,-11.4,-11.4,0
17.435,-11.4,-11.4,1
17.455,-11.4,-11.4,1
17.474,-11.4,-11.4,1
17.494,-11.4,-11.4,1
17.514,-11.4,-11.4,1
17.534,-11.4,-11.4,1
17.554,-11.4,-11.52,1
17.575,-11.4,-11.4,1
17.595,-11.4,-11.4,1
17.614,-11.52,-11.52,1
17.634,-11.4,-11.4,1
17.654,-11.16,-11.16,1
17.674,-10.54,-10.54,1
17.695,-9.69,-9.08,1
17.714,-7.86,-7.49,1
17.734,-6.39,-6.39,1
17.734,-5.29,-5.41,1
17.755,-4.31,-4.8,1
17.775,-3.58,-4.44,1
17.795,-3.09,-3.95,1
17.815,-2.85,-3.46,1
17.835,-2.36,-3.21,1
17.855,-1.99,-2.97,1
17.875,-1.5,-2.72,1
17.895,-1.5,-2.6,0
17.915,-1.38,-2.48,0
17.934,-1.14,-2.24,0
17.954,-1.01,-2.11,0
17.975,-0.77,-1.87,0
17.995,-1.01,-1.75,0
18.014,-0.89,-1.75,0
18.035,-0.65,-1.75,0
18.054,-0.53,-1.5,0
18.075,-0.28,-1.63,0
18.094,-0.77,-1.5,0
18.115,-0.65,-1.38,0
18.134,-0.4,-1.38,0
18.155,-0.16,-1.38,0
18.175,-0.4,-1.38,0
18.195,-0.16,-1.38,0
18.215,-0.16,-1.26,0
18.235,-0.77,-1.87,0
18.255,-2.97,-3.7,0
18.275,-4.8,-5.78,0
18.295,-6.27,-8.47,0
18.315,-8.59,-9.69,0
18.335,-10.06,-10.42,0
18.355,-10.54,-10.67,0
18.375,-10.79,-10.91,0
18.395,-11.03,-11.03,0
18.415,-11.16,-11.16,0
18.435,-11.28,-11.28,0
18.456,-11.28,-11.28,0
18.475,-11.4,-11.28,0
18.495,-11.4,-11.28,0
18.515,-11.4,-11.4,0
18.535,-11.4,-11.4,0
18.535,-11.4,-11.4,0
18.556,-11.4,-11.4,0
18.576,-11.4,-11.4,1
18.595,-11.4,-11.4,1
18.616,-11.52,-11.4,1
18.636,-11.4,-11.4,1
18.656,-11.52,-11.4,1
18.675,-11.4,-11.4,1
18.696,-11.52,-11.4,1
18.715,-11.52,-11.52,1
18.735,-11.52,-11.52,1
18.755,-11.4,-11.4,1
18.776,-11.52,-11.52,1
18.796,-11.28,-11.16,1
18.815,-10.67,-10.67,1
18.835,-9.93,-10.06,1
18.856,-8.71,-8.96,1
18.875,-6.76,-7.37,1
18.895,-5.66,-6.27,1
18.915,-4.68,-5.41,1
18.936,-3.95,-4.68,1
18.936,-3.21,-4.31,1
18.956,-2.85,-3.95,1
18.976,-2.72,-3.46,1
18.996,-1.99,-3.21,1
19.016,-1.87,-2.85,1
19.036,-1.38,-2.6,1
19.056,-1.38,-2.48,0
19.076,-1.38,-2.36,0
19.096,-1.14,-2.11,0
19.116,-0.89,-1.99,0
19.136,-0.65,-1.87,0
19.156,-0.89,-1.75,0
19.176,-0.53,-1.75,0
19.197,-0.65,-1.75,0
19.216,-0.4,-1.63,0
19.236,-0.4,-1.63,0
19.256,-0.77,-1.63,0
19.276,-0.53,-1.38,0
19.296,-0.28,-1.5,0
19.316,-0.16,-1.38,0
19.336,-0.4,-1.38,0
19.356,-0.28,-1.38,0
19.377,-0.65,-1.87,0
19.396,-2.72,-3.58,0
19.417,-4.68,-5.29,0
19.437,-6.27,-6.63,0
19.456,-8.59,-8.83,0
19.477,-9.93,-9.93,0
19.497,-10.54,-10.42,0
19.517,-10.79,-10.79,0
19.536,-10.91,-11.03,0
19.557,-11.16,-11.03,0
19.577,-11.16,-11.16,0
19.596,-11.28,-11.28,0
19.616,-11.28,-11.28,0
19.636,-11.4,-11.28,0
19.657,-11.28,-11.4,0
19.676,-11.4,-11.4,0
19.697,-11.4,-11.4,0
19.718,-11.4,-11.4,0
19.736,-11.4,-11.4,1
19.736,-11.4,-11.4,1
19.757,-11.4,-11.4,1
19.776,-11.4,-11.4,1
19.796,-11.4,-11.4,1
19.817,-11.4,-11.4,1
19.837,-11.4,-11.52,1
19.857,-11.52,-11.52,1
19.876,-11.4,-11.4,1
19.897,-11.52,-11.4,1
19.917,-11.52,-11.52,1
19.937,-11.28,-11.28,1
19.957,-10.79,-10.79,1
19.977,-10.18,-9.45,1
19.997,-9.57,-7.73,1
20.017,-8.35,-6.51,1
20.037,-6.51,-5.66,1
20.057,-5.17,-4.92,1
20.077,-4.44,-4.44,1
20.096,-3.82,-3.95,1
20.117,-3.34,-3.58,1
20.137,-2.72,-3.34,1
20.157,-2.48,-2.97,1
20.177,-2.11,-2.72,1
20.197,-1.87,-2.6,0
20.217,-1.63,-2.36,0
20.237,-1.26,-2.24,0
20.257,-1.14,-2.11,0
20.277,-1.14,-1.87,0
20.297,-1.01,-1.75,0
20.317,-0.89,-1.75,0
20.337,-0.89,-1.75,0
20.358,-0.77,-1.63,0
20.377,-0.65,-1.75,0
20.397,-0.65,-1.5,0
20.417,-0.4,-1.38,0
20.437,-0.65,-1.38,0
20.458,-0.65,-1.38,0
20.477,-0.53,-1.26,0
20.497,-0.28,-1.38,0
20.518,-0.16,-1.26,0
20.537,-0.28,-1.14,0
20.558,-2.24,-3.21,0
20.577,-4.31,-5.05,0
20.597,-5.78,-7.86,0
20.617,-8.1,-9.45,0
20.638,-9.69,-10.18,0
20.658,-10.42,-10.67,0
20.678,-10.79,-10.91,0
20.698,-11.03,-11.03,0
20.718,-11.16,-11.16,0
20.738,-11.16,-11.16,0
20.758,-11.28,-11.28,0
20.778,-11.28,-11.28,0
20.798,-11.4,-11.28,0
20.818,-11.4,-11.4,0
20.838,-11.4,-11.4,0
20.858,-11.4,-11.4,0
20.877,-11.4,-11.4,0
20.897,-11.4,-11.4,1
20.918,-11.4,-11.4,1
20.938,-11.4,-11.4,1
20.958,-11.4,-11.4,1
20.978,-11.4,-11.4,1
20.998,-11.52,-11.4,1
21.018,-11.52,-11.4,1
21.038,-11.52,-11.4,1
21.058,-11.4,-11.4,1
21.078,-11.4,-11.4,1
21.098,-11.4,-11.4,1
21.118,-11.4,-11.28,1
21.138,-10.91,-10.79,1
21.158,-10.3,-9.69,1
21.179,-9.2,-7.98,1
21.198,-7.37,-6.63,1
21.218,-6.02,-5.78,1
21.238,-4.8,-4.92,1
21.258,-4.07,-4.44,1
21.279,-3.58,-4.19,1
21.298,-3.09,-3.7,1
21.319,-2.72,-3.21,1
21.339,-2.24,-2.97,1
21.339,-1.87,-2.85,1
21.359,-1.75,-2.48,1
21.379,-1.5,-2.36,0
21.399,-1.14,-2.36,0
21.419,-1.01,-2.11,0
21.439,-1.14,-1.87,0
21.459,-1.01,-1.87,0
21.479,-1.01,-1.75,0
21.499,-0.65,-1.63,0
21.519,-0.53,-1.75,0
21.539,-0.65,-1.63,0
21.559,-0.77,-1.5,0
21.579,-0.4,-1.5,0
21.599,-0.4,-1.38,0
21.619,-0.53,-1.38,0
21.639,-0.4,-1.38,0
21.659,-0.4,-1.5,0
21.679,-0.16,-1.26,0
21.699,-0.04,-1.26,0
21.719,-1.75,-2.97,0
21.739,-3.7,-4.8,0
21.76,-5.29,-7.49,0
21.781,-6.39,-9.32,0
21.8,-8.22,-10.18,0
21.82,-9.57,-10.67,0
21.839,-10.42,-10.79,0
21.86,-10.79,-11.03,0
21.88,-11.03,-11.16,0
21.9,-11.03,-11.16,0
21.919,-11.16,-11.28,0
21.939,-11.28,-11.28,0
21.96,-11.4,-11.28,0
21.98,-11.28,-11.4,0
22.0,-11.4,-11.4,0
22.02,-11.4,-11.28,0
22.04,-11.4,-11.28,0
22.06,-11.4,-11.4,1
22.079,-11.4,-11.4,1
22.099,-11.4,-11.4,1
22.12,-11.4,-11.4,1
22.14,-11.52,-11.4,1
22.14,-11.4,-11.4,1
22.16,-11.4,-11.4,1
22.18,-11.4,-11.52,1
22.2,-11.4,-11.4,1
22.22,-11.52,-11.4,1
22.24,-11.52,-11.52,1
22.26,-11.4,-11.4,1
22.281,-10.91,-10.91,1
22.301,-10.3,-9.93,1
22.32,-9.2,-8.22,1
22.34,-7.37,-6.88,1
22.36,-5.66,-5.9,1
22.38,-4.8,-5.05,1
22.4,-4.19,-4.56,1
22.42,-3.58,-4.19,1
22.44,-3.09,-3.82,1
22.46,-2.6,-3.34,1
22.481,-2.36,-3.09,1
22.5,-1.99,-2.85,1
22.52,-1.75,-2.6,1
22.54,-1.38,-2.36,0
22.561,-1.38,-2.36,0
22.581,-1.01,-2.11,0
22.601,-1.01,-1.99,0
22.621,-1.01,-1.99,0
22.641,-0.77,-1.75,0
22.662,-0.77,-1.75,0
22.681,-0.53,-1.75,0
22.7,-0.65,-1.75,0
22.721,-0.65,-1.5,0
22.741,-0.53,-1.5,0
22.76,-0.53,-1.38,0
22.781,-0.53,-1.38,0
22.8,-0.28,-1.38,0
22.821,-0.16,-1.38,0
22.841,-0.16,-1.26,0
22.861,-0.16,-1.26,0
22.88,-1.5,-2.48,0
22.901,-3.7,-4.31,0
22.921,-5.29,-7.0,0
22.94,-7.37,-9.08,0
22.961,-9.45,-9.93,0
22.981,-10.18,-10.42,0
23.001,-10.67,-10.79,0
23.021,-10.91,-11.03,0
23.041,-11.03,-11.16,0
23.061,-11.16,-11.16,0
23.081,-11.28,-11.28,0
23.101,-11.28,-11.28,0
23.121,-11.28,-11.28,0
23.141,-11.4,-11.28,0
23.161,-11.4,-11.4,0
23.181,-11.4,-11.4,0
23.201,-11.4,-11.4,0
23.221,-11.4,-11.4,1
23.241,-11.4,-11.4,1
23.261,-11.4,-11.4,1
23.281,-11.4,-11.4,1
23.3,-11.4,-11.4,1
23.321,-11.4,-11.4,1
23.341,-11.4,-11.4,1
23.341,-11.4,-11.4,1
23.361,-11.52,-11.4,1
23.381,-11.52,-11.4,1
23.401,-11.52,-11.4,1
23.422,-11.4,-11.4,1
23.441,-11.16,-11.03,1
23.462,-10.42,-10.42,1
23.481,-9.57,-9.57,1
23.501,-7.61,-8.1,1
23.521,-5.9,-6.76,1
23.541,-5.17,-5.78,1
23.562,-4.19,-5.05,1
23.581,-3.58,-4.56,1
23.602,-3.21,-4.07,1
23.621,-2.48,-3.7,1
23.642,-2.48,-3.34,1
23.662,-1.99,-2.97,1
23.681,-1.63,-2.85,1
23.702,-1.38,-2.6,1
23.721,-1.38,-2.36,0
23.742,-1.26,-2.36,0
23.742,-1.14,-2.24,0
23.762,-1.01,-1.99,0
23.782,-0.77,-1.87,0
23.802,-0.89,-1.75,0
23.822,-0.65,-1.75,0
23.842,-0.65,-1.75,0
23.862,-0.65,-1.75,0
23.882,-0.4,-1.63,0
23.902,-0.77,-1.5,0
23.922,-0.53,-1.5,0
23.943,-0.4,-1.38,0
23.963,-0.28,-1.38,0
23.983,-0.28,-1.5,0
24.003,-0.28,-1.5,0
24.022,-1.26,-2.24,0
24.042,-3.34,-3.82,0
24.063,-5.17,-5.54,0
24.083,-6.63,-8.1,0
24.102,-9.08,-9.69,0
24.122,-10.06,-10.3,0
24.143,-10.67,-10.67,0
24.163,-10.79,-10.91,0
24.183,-10.91,-11.03,0
24.203,-11.16,-11.03,0
24.223,-11.28,-11.16,0
24.243,-11.28,-11.28,0
24.263,-11.4,-11.28,0
24.283,-11.4,-11.28,0
24.303,-11.28,-11.28,0
24.323,-11.4,-11.4,0
24.343,-11.4,-11.28,0
24.363,-11.52,-11.4,1
24.383,-11.4,-11.4,1
24.403,-11.52,-11.4,1
24.423,-11.4,-11.4,1
24.443,-11.4,-11.4,1
24.463,-11.4,-11.4,1
24.483,-11.4,-11.4,1
24.503,-11.4,-11.4,1
24.523,-11.4,-11.4,1
24.543,-11.52,-11.4,1
24.543,-11.52,-11.52,1
24.564,-11.52,-11.4,1
24.583,-11.16,-11.03,1
24.604,-10.54,-10.42,1
24.623,-9.69,-9.08,1
24.644,-7.86,-7.49,1
24.663,-6.27,-6.39,1
24.684,-5.17,-5.54,1
24.703,-4.44,-4.68,1
24.724,-3.7,-4.31,1
24.744,-3.21,-3.95,1
24.763,-2.6,-3.58,1
24.784,-2.48,-3.21,1
24.804,-1.99,-2.97,1
24.823,-1.63,-2.72,1
24.844,-1.5,-2.48,1
24.864,-1.14,-2.48,0
24.883,-1.26,-2.36,0
24.904,-1.14,-2.11,0
24.924,-1.01,-1.99,0
24.944,-0.89,-1.87,0
24.965,-0.89,-1.75,0
24.984,-0.65,-1.75,0
25.005,-0.65,-1.75,0
25.024,-0.65,-1.63,0
25.045,-0.4,-1.63,0
25.065,-0.77,-1.63,0
25.085,-0.53,-1.38,0
25.105,-0.4,-1.38,0
25.124,-0.28,-1.38,0
25.145,-0.28,-1.38,0
25.165,-0.28,-1.38,0
25.185,-0.89,-1.99,0
25.205,-2.85,-3.82,0
25.225,-4.68,-6.15,0
25.245,-5.9,-8.59,0
25.264,-7.73,-9.81,0
25.285,-9.57,-10.42,0
25.305,-10.3,-10.79,0
25.325,-10.79,-10.91,0
25.344,-10.91,-11.03,0
25.365,-11.16,-11.16,0
25.384,-11.16,-11.16,0
25.405,-11.28,-11.28,0
25.425,-11.28,-11.28,0
25.445,-11.28,-11.28,0
25.466,-11.28,-11.28,0
25.485,-11.4,-11.4,0
25.505,-11.4,-11.28,0
25.525,-11.4,-11.4,1
25.545,-11.4,-11.4,1
25.565,-11.4,-11.4,1
25.585,-11.4,-11.4,1
25.606,-11.4,-11.4,1
25.625,-11.4,-11.4,1
25.645,-11.4,-11.4,1
25.665,-11.4,-11.4,1
25.685,-11.4,-11.4,1
25.705,-11.52,-11.4,1
25.725,-11.52,-11.4,1
25.745,-11.52,-11.52,1
25.745,-11.28,-11.16,1
25.765,-10.67,-10.54,1
25.786,-9.93,-9.2,1
25.805,-8.22,-7.61,1
25.825,-6.39,-6.39,1
25.846,-5.41,-5.54,1
25.865,-4.56,-4.92,1
25.885,-3.7,-4.44,1
25.905,-3.34,-3.95,1
25.926,-2.72,-3.58,1
25.945,-2.48,-3.34,1
25.966,-2.11,-2.97,1
25.985,-1.75,-2.72,1
26.005,-1.38,-2.6,1
26.025,-1.38,-2.36,0
26.046,-1.38,-2.24,0
26.065,-1.01,-2.24,0
26.086,-1.01,-1.99,0
26.105,-0.77,-1.87,0
26.127,-0.89,-1.87,0
26.145,-0.89,-1.75,0
26.145,-0.65,-1.75,0
26.166,-0.65,-1.75,0
26.185,-0.53,-1.75,0
26.205,-0.89,-1.63,0
26.225,-0.65,-1.5,0
26.245,-0.4,-1.5,0
26.266,-0.28,-1.5,0
26.286,-0.4,-1.38,0
26.305,-0.4,-1.5,0
26.325,-0.77,-1.63,0
26.345,-2.85,-3.46,0
26.365,-4.68,-5.54,0
26.385,-6.15,-8.22,0
26.406,-8.47,-9.69,0
26.425,-9.93,-10.3,0
26.445,-10.54,-10.67,0
26.465,-10.91,-10.91,0
26.485,-11.03,-11.03,0
26.505,-11.16,-11.16,0
26.525,-11.16,-11.16,0
26.546,-11.28,-11.28,0
26.546,-11.4,-11.28,0
26.566,-11.4,-11.28,0
26.586,-11.4,-11.4,0
26.606,-11.4,-11.4,0
26.626,-11.4,-11.28,0
26.646,-11.4,-11.4,1
26.666,-11.4,-11.28,1
26.686,-11.4,-11.4,1
26.707,-11.52,-11.4,1
26.726,-11.4,-11.4,1
26.746,-11.4,-11.4,1
26.766,-11.4,-11.4,1
26.787,-11.4,-11.4,1
26.806,-11.4,-11.4,1
26.826,-11.52,-11.4,1
26.846,-11.52,-11.52,1
26.866,-11.52,-11.4,1
26.886,-11.28,-11.28,1
26.906,-10.91,-10.67,1
26.926,-10.18,-9.45,1
26.947,-9.08,-7.73,1
26.947,-7.37,-6.51,1
26.967,-5.66,-5.66,1
26.988,-4.92,-4.92,1
27.007,-4.31,-4.44,1
27.028,-3.58,-4.07,1
27.047,-3.09,-3.7,1
27.067,-2.48,-3.34,1
27.087,-2.36,-3.09,1
27.107,-1.87,-2.85,1
27.127,-1.75,-2.6,1
27.147,-1.26,-2.48,0
27.167,-1.38,-2.36,0
27.188,-1.26,-2.11,0
27.208,-1.01,-1.99,0
27.227,-1.01,-1.99,0
27.248,-0.77,-1.75,0
27.268,-0.89,-1.75,0
27.287,-0.89,-1.75,0
27.307,-0.77,-1.63,0
27.327,-0.65,-1.75,0
27.347,-0.53,-1.63,0
27.347,-0.77,-1.5,0
27.367,-0.53,-1.5,0
27.388,-0.4,-1.5,0
27.407,-0.28,-1.38,0
27.428,-0.4,-1.38,0
27.448,-0.53,-1.5,0
27.467,-2.36,-3.34,0
27.488,-4.31,-4.92,0
27.507,-5.9,-7.73,0
27.527,-8.22,-9.45,0
27.548,-9.57,-10.3,0
27.567,-10.42,-10.54,0
27.588,-10.79,-10.91,0
27.607,-11.03,-11.03,0
27.627,-11.16,-11.16,0
27.648,-11.16,-11.16,0
27.668,-11.28,-11.28,0
27.688,-11.28,-11.28,0
27.707,-11.4,-11.4,0
27.728,-11.28,-11.28,0
27.747,-11.4,-11.28,0
27.747,-11.28,-11.4,0
27.767,-11.4,-11.4,1
27.788,-11.4,-11.4,1
27.809,-11.4,-11.4,1
27.833,-11.4,-11.4,1
27.858,-11.4,-11.4,1
27.878,,,
27.888,-11.4,-11.4,1
27.907,,,
27.928,-11.4,-11.4,1
27.947,-11.4,-11.4,1
27.967,-11.4,-11.4,1
27.988,-11.52,-11.4,1
28.007,-11.4,-11.4,1
28.027,-11.52,-11.4,1
28.048,,,
28.068,-11.28,-11.28,1
28.087,-10.79,-10.79,1
28.107,-10.18,-10.3,1
28.128,-8.83,-9.2,1
28.148,-7.0,-7.61,1
28.165,-5.54,-6.39,1
28.186,-4.68,-5.54,1
28.206,,,
28.226,-4.07,-4.92,1
28.246,-3.46,-4.31,1
28.266,-2.97,-3.95,1
28.286,-2.36,-3.7,1
28.306,-2.36,-3.34,1
28.329,-1.99,-2.97,1
28.346,-1.63,-2.85,1
28.366,-1.38,-2.6,1
28.385,-1.26,-2.36,0
28.406,,,
28.426,-1.26,-2.36,0
28.446,-1.01,-2.24,0
28.467,-1.01,-2.11,0
28.486,-0.77,-1.99,0
28.505,-0.77,-1.87,0
28.526,-0.77,-1.75,0
28.545,-0.65,-1.75,0
28.566,-0.65,-1.75,0
28.586,-0.4,-1.75,0
28.607,-0.77,-1.63,0
28.626,-0.4,-1.63,0
28.647,-0.4,-1.5,0
28.666,,,
28.687,-0.28,-1.38,0
28.706,-0.04,-1.38,0
28.726,-0.4,-1.5,0
28.746,-1.99,-2.85,0
28.766,-3.95,-4.8,0
28.786,-5.54,-7.61,0
28.807,-7.37,-9.32,0
28.829,-9.45,-10.06,0
28.847,-10.3,-10.54,0
28.867,,,
28.886,-10.79,-10.79,0
28.906,-10.91,-11.03,0
28.927,-11.03,-11.03,0
28.947,-11.16,-11.16,0
28.966,-11.28,-11.28,0
28.989,-11.28,-11.28,0
29.009,,,
29.027,-11.4,-11.28,0
29.046,-11.4,-11.28,0
29.067,-11.4,-11.28,0
29.086,-11.28,-11.4,1
29.107,-11.4,-11.4,1
29.132,-11.4,-11.4,1
29.153,,,
29.167,-11.4,-11.4,1
29.186,-11.4,-11.4,1
29.207,-11.4,-11.4,1
29.226,-11.4,-11.4,1
29.25,-11.4,-11.4,1
29.275,-11.4,-11.52,1
29.299,-11.4,-11.4,1
29.32,,,
29.326,-11.4,-11.4,1
29.346,,,
29.367,-11.52,-11.4,1
29.37,-11.52,-11.4,1
29.394,-11.4,-11.4,1
29.419,-10.91,-10.91,1
29.443,-10.3,-10.06,1
29.464,,,
29.471,-8.96,-8.47,1
29.49,-7.0,-7.12,1
29.511,-5.66,-6.15,1
29.533,-4.68,-5.29,1
29.554,-4.07,-4.68,1
29.574,-3.46,-4.19,1
29.598,-3.09,-3.82,1
29.619,-2.36,-3.46,1
29.64,-2.24,-3.21,1
29.665,-1.99,-2.97,1
29.685,-1.5,-2.72,1
29.705,-1.38,-2.6,1
29.729,-1.14,-2.48,1
29.75,-1.26,-2.36,0
29.771,,,
29.791,-1.01,-2.24,0
29.811,-1.01,-2.11,0
29.831,-0.77,-1.99,0
29.851,-0.77,-1.75,0
29.871,-0.77,-1.75,0
29.891,-0.65,-1.75,0
29.912,-0.77,-1.75,0
29.931,-0.53,-1.75,0
29.951,-0.77,-1.75,0
29.971,,,
29.992,-0.65,-1.5,0
30.011,-0.4,-1.5,0
30.031,-0.28,-1.5,0
30.051,-0.16,-1.5,0
30.071,-0.53,-1.5,0
30.091,-2.11,-2.72,0
30.111,-4.07,-4.68,0
30.131,-5.54,-7.37,0
30.151,-7.61,-9.32,0
30.171,-9.45,-10.18,0
30.189,-10.42,-10.54,0
30.213,-10.79,-10.79,0
30.237,-10.91,-11.03,0
30.262,-11.03,-11.03,0
30.283,,,
30.289,-11.16,-11.16,0
30.31,-11.28,-11.28,0
30.332,-11.28,-11.28,0
30.357,-11.4,-11.28,0
30.381,-11.28,-11.28,0
30.406,-11.4,-11.4,0
30.426,,,
30.429,,,
30.45,-11.4,-11.28,1
30.469,-11.4,-11.4,1
30.489,-11.4,-11.4,1
30.509,-11.4,-11.4,1
30.529,-11.4,-11.4,1
30.549,-11.4,-11.4,1
30.573,-11.4,-11.4,1
30.594,,,
30.615,-11.52,-11.4,1
30.635,-11.52,-11.4,1
30.655,-11.4,-11.4,1
30.674,-11.52,-11.4,1
30.694,-11.52,-11.52,1
30.716,-11.52,-11.52,1
30.737,,,
30.754,-11.4,-11.4,1
30.774,-10.91,-11.03,1
30.794,-10.3,-10.18,1
30.815,-9.2,-8.83,1
30.835,,,
30.855,-7.12,-7.49,1
30.874,-5.78,-6.39,1
30.895,-4.68,-5.54,1
30.915,-4.19,-4.8,1
30.935,-3.58,-4.44,1
30.955,-3.09,-3.82,1
30.974,-2.48,-3.58,1
30.994,-2.24,-3.34,1
31.015,-1.99,-2.97,1
31.035,-1.63,-2.85,1
31.055,-1.5,-2.6,1
31.075,-1.14,-2.48,1
31.095,,,
31.115,-1.38,-2.36,1
31.135,-1.14,-2.24,0
31.155,-1.01,-2.24,0
31.175,-0.89,-1.99,0
31.196,-0.77,-1.87,0
31.215,-0.89,-1.87,0
31.235,-0.65,-1.75,0
31.255,-0.77,-1.63,0
31.275,-0.65,-1.75,0
31.295,-0.77,-1.75,0
31.315,-0.65,-1.63,0
31.336,-0.4,-1.63,0
31.36,-0.4,-1.5,0
31.38,-0.16,-1.5,0
31.401,-0.53,-1.5,0
31.425,-1.75,-2.6,0
31.446,-3.82,-4.44,0
31.467,-5.41,-7.12,0
31.491,-6.39,-9.08,0
31.512,-7.49,-10.06,0
31.532,,,
31.542,-9.57,-10.54,0
31.563,-10.42,-10.79,0
31.582,-10.67,-10.91,0
31.606,-10.91,-11.03,0
31.63,-11.03,-11.16,0
31.651,,,
31.662,-11.16,-11.28,0
31.682,-11.28,-11.28,0
31.702,-11.28,-11.28,0
31.724,-11.28,-11.28,0
31.749,-11.28,-11.28,0
31.773,-11.4,-11.4,1
31.798,-11.4,-11.4,1
31.819,,,
31.839,-11.4,-11.4,1
31.859,-11.4,-11.4,1
31.879,-11.4,-11.4,1
31.899,-11.4,-11.4,1
31.92,-11.4,-11.4,1
31.942,-11.4,-11.4,1
31.966,-11.4,-11.4,1
31.987,,,
31.999,-11.4,-11.4,1
32.019,-11.4,-11.52,1
32.04,-11.4,-11.4,1
32.061,-11.4,-11.52,1
32.085,-11.4,-11.4,1
32.11,-11.16,-11.03,1
32.13,,,
32.139,-10.42,-10.42,1
32.16,-9.32,-9.45,1
32.18,-7.37,-7.86,1
32.2,-5.9,-6.88,1
32.22,,,
32.241,-5.05,-5.9,1
32.26,-4.44,-5.05,1
32.281,-3.58,-4.68,1
32.301,-2.97,-4.19,1
32.32,-2.36,-3.58,1
32.341,-2.36,-3.46,1
32.36,-1.99,-3.21,1
32.38,-1.63,-2.97,1
32.4,-1.26,-2.72,1
32.42,,,
32.441,-1.38,-2.6,1
32.461,-1.38,-2.36,1
32.481,-1.01,-2.24,1
32.501,-1.01,-2.24,0
32.521,-0.65,-2.11,0
32.541,-0.89,-1.99,0
32.561,-0.89,-1.99,0
32.58,-0.65,-1.75,0
32.6,-0.65,-1.75,0
32.621,-0.4,-1.75,0
32.642,-0.65,-1.75,0
32.662,-0.4,-1.75,0
32.682,,,
32.701,-0.28,-1.63,0
32.722,-0.04,-1.63,0
32.742,-0.4,-1.5,0
32.762,-0.65,-1.5,0
32.782,-1.38,-2.36,0
32.801,-3.58,-4.07,0
32.822,-5.29,-5.41,0
32.841,-6.76,-7.12,0
32.862,-8.96,-9.08,0
32.881,-10.3,-10.06,0
32.902,,,
32.921,-10.67,-10.54,0
32.941,-10.91,-10.79,0
32.962,-11.16,-10.91,0
32.982,-11.16,-11.03,0
33.001,-11.16,-11.16,0
33.023,-11.28,-11.16,0
33.044,,,
33.063,-11.28,-11.28,0
33.084,-11.4,-11.28,0
33.104,-11.4,-11.28,0
33.123,-11.4,-11.28,1
33.143,-11.4,-11.28,1
33.165,-11.4,-11.4,1
33.191,-11.4,-11.4,1
33.211,,,
33.223,-11.52,-11.4,1
33.243,-11.4,-11.4,1
33.263,-11.52,-11.4,1
33.285,-11.4,-11.4,1
33.31,-11.4,-11.4,1
33.333,-11.4,-11.4,1
33.355,,,
33.364,-11.4,-11.4,1
33.383,,,
33.403,-11.4,-11.4,1
33.423,-11.52,-11.4,1
33.429,-11.52,-11.4,1
33.453,-11.16,-11.03,1
33.477,-10.54,-10.3,1
33.502,-9.57,-8.71,1
33.522,-7.73,-7.37,1
33.543,,,
33.55,-6.15,-6.27,1
33.569,-5.05,-5.54,1
33.589,-4.44,-4.8,1
33.609,,,
33.629,-3.7,-4.31,1
33.649,-3.21,-3.95,1
33.669,-2.48,-3.7,1
33.689,-2.36,-3.34,1
33.709,-2.11,-3.09,1
33.729,-1.63,-2.85,1
33.749,-1.38,-2.6,1
33.77,-1.14,-2.48,1
33.789,-1.38,-2.36,1
33.809,,,
33.829,-1.26,-2.24,0
33.849,-0.89,-2.24,0
33.869,-0.77,-2.11,0
33.89,-0.77,-1.87,0
33.909,-0.77,-1.87,0
33.93,-0.65,-1.87,0
33.949,-0.65,-1.87,0
33.969,-0.4,-1.75,0
33.99,-0.53,-1.75,0
34.009,-0.65,-1.63,0
34.03,-0.28,-1.5,0
34.05,-0.04,-1.5,0
34.07,,,
34.089,-0.16,-1.38,0
34.11,-0.65,-1.38,0
34.13,-1.26,-1.99,0
34.149,-3.34,-3.58,0
34.17,-5.05,-5.05,0
34.189,-6.39,-7.25,0
34.209,-8.83,-9.08,0
34.23,-9.93,-10.06,0
34.251,-10.67,-10.54,0
34.271,-10.91,-10.79,0
34.293,-11.16,-11.03,0
34.318,-11.16,-11.16,0
34.342,-11.28,-11.16,0
34.366,-11.28,-11.28,0
34.387,,,
34.391,,,
34.411,-11.4,-11.28,0
34.431,-11.52,-11.4,0
34.451,-11.4,-11.4,0
34.471,-11.4,-11.4,0
34.491,-11.4,-11.4,1
34.511,-11.52,-11.4,1
34.534,-11.4,-11.4,1
34.554,,,
34.571,-11.52,-11.52,1
34.591,-11.52,-11.4,1
34.611,-11.52,-11.4,1
34.631,-11.52,-11.52,1
34.654,-11.52,-11.4,1
34.677,-11.52,-11.52,1
34.703,-11.52,-11.52,1
34.723,,,
34.734,-11.52,-11.52,1
34.754,-11.52,-11.52,1
34.775,-11.52,-11.52,1
34.797,-11.28,-11.28,1
34.821,-10.79,-10.67,1
34.845,-10.06,-9.57,1
34.866,-8.22,-7.98,1
34.891,-6.51,-6.63,1
34.911,-5.29,-5.78,1
34.932,-4.56,-5.05,1
34.956,-3.95,-4.44,1
34.977,-3.21,-4.07,1
34.998,-2.6,-3.58,1
35.022,-2.11,-3.21,1
35.042,-2.11,-2.97,1
35.063,,,
35.083,-1.5,-2.72,1
35.103,-1.38,-2.48,1
35.123,-1.01,-2.36,1
35.143,-1.26,-2.11,0
35.163,-1.26,-2.11,0
35.183,-0.89,-1.99,0
35.203,-0.77,-1.75,0
35.224,-0.4,-1.63,0
35.243,-0.77,-1.63,0
35.263,,,
35.283,-0.65,-1.5,0
35.303,-0.65,-1.5,0
35.323,-0.28,-1.5,0
35.343,-0.28,-1.38,0
35.363,-0.4,-1.26,0
35.383,-0.04,-1.26,0
35.403,-0.04,-1.14,0
35.423,-0.04,-1.01,0
35.443,-0.28,-1.14,0
35.463,-0.77,-1.63,0
35.484,-2.85,-3.09,0
35.504,-4.68,-4.68,0
35.524,,,
35.544,-6.15,-6.02,0
35.564,-8.47,-8.47,0
35.584,-9.81,-9.81,0
35.604,-10.54,-10.3,0
35.624,-10.79,-10.79,0
35.644,-11.16,-11.03,0
35.664,-11.16,-11.03,0
35.685,-11.16,-11.16,0
35.71,-11.28,-11.28,0
35.73,,,
35.744,-11.28,-11.28,0
35.764,-11.16,-11.4,0
35.784,-11.03,-11.4,0
35.804,-10.91,-11.4,0
35.829,-10.79,-11.4,0
35.854,-10.79,-11.4,1
35.878,-10.79,-11.4,1
35.898,,,
35.918,-10.79,-11.4,1
35.939,-10.79,-11.4,1
35.959,-10.79,-11.4,1
35.978,-10.79,-11.4,1
35.998,-10.79,-11.52,1
36.021,-10.67,-11.4,1
36.045,-10.79,-11.52,1
36.066,,,
36.078,-10.79,-11.52,1
36.098,-10.91,-11.52,1
36.118,-10.79,-11.52,1
36.14,-10.54,-11.4,1
36.165,-9.57,-10.91,1
36.184,,,
36.198,-8.59,-9.81,1
36.218,-7.25,-8.35,1
36.238,-5.9,-6.88,1
36.258,-5.05,-5.9,1
36.278,-4.68,-5.29,1
36.299,-4.44,-4.56,1
36.319,,,
36.338,-4.07,-4.19,1
36.358,-3.82,-3.82,1
36.378,-3.46,-3.34,1
36.398,-3.58,-3.09,1
36.418,-3.7,-2.85,1
36.438,-3.46,-2.48,1
36.459,-3.21,-2.36,0
36.478,-3.34,-2.36,0
36.498,-3.58,-2.11,0
36.518,-3.46,-1.99,0
36.538,-3.46,-1.75,0
36.558,-3.09,-1.63,0
36.579,,,
36.598,-3.21,-1.63,0
36.618,-3.58,-1.63,0
36.638,-3.34,-1.5,0
36.658,-3.46,-1.38,0
36.678,-3.21,-1.38,0
36.699,-3.46,-1.14,0
36.719,-3.46,-1.14,0
36.739,-3.21,-1.26,0
36.758,-3.09,-1.14,0
36.779,-3.34,-1.01,0
36.799,-3.58,-1.14,0
36.819,-5.29,-2.72,0
36.845,-6.76,-4.31,0
36.865,-7.49,-6.51,0
36.886,-8.96,-8.71,0
36.91,-9.93,-9.93,0
36.93,-10.42,-10.42,0
36.955,-10.54,-10.79,0
36.979,-10.67,-11.03,0
37.0,,,
37.0,,,
37.019,-10.67,-11.16,0
37.039,-10.67,-11.28,0
37.058,-10.67,-11.28,0
37.079,-10.79,-11.28,0
37.098,-10.79,-11.4,0
37.123,-10.79,-11.4,0
37.148,-10.79,-11.4,0
37.168,,,
37.179,-10.79,-11.28,0
37.199,-10.67,-11.03,0
37.219,-10.67,-10.91,1
37.242,-10.79,-10.91,1
37.267,-10.79,-10.79,1
37.291,-10.79,-10.79,1
37.311,,,
37.319,-10.67,-10.79,1
37.339,,,
37.359,-10.79,-10.67,1
37.379,-10.67,-10.67,1
37.398,-10.79,-10.67,1
37.419,-10.79,-10.67,1
37.438,-10.79,-10.67,1
37.459,-10.79,-10.79,1
37.479,,,
37.499,-10.67,-10.54,1
37.505,,,
37.526,-9.93,-9.57,1
37.545,-8.96,-8.59,1
37.566,-8.22,-7.12,1
37.586,-7.61,-6.27,1
37.605,-6.27,-5.66,1
37.625,-5.29,-5.29,1
37.645,-4.8,-4.92,1
37.665,-4.44,-4.8,1
37.685,-4.44,-4.68,1
37.705,-4.07,-4.68,1
37.725,-3.82,-4.56,1
37.746,-3.58,-4.44,1
37.766,,,
37.786,-3.7,-4.44,1
37.805,-3.7,-4.44,0
37.826,-3.46,-4.31,0
37.845,-3.46,-4.44,0
37.865,-3.46,-4.31,0
37.885,-3.7,-4.31,0
37.905,-3.58,-4.31,0
