Time (s),Pressure 1 (kPa),Pressure 2 (kPa),Switch State
0.123,-7.49,-7.86,1
0.144,-7.61,-7.98,1
0.164,-7.61,-7.86,1
0.184,-7.61,-7.86,1
0.204,-7.61,-7.86,1
0.224,-7.49,-7.86,1
0.243,-7.61,-7.86,1
0.264,-7.61,-7.86,1
0.284,-7.49,-7.98,1
0.303,-7.49,-7.98,1
0.324,-7.61,-7.86,1
0.344,-7.61,-7.98,1
0.363,-7.49,-7.98,1
0.384,-7.61,-7.86,1
0.404,-7.61,-7.98,1
0.424,-7.61,-7.98,1
0.444,-7.49,-7.98,1
0.464,-7.61,-7.86,1
0.483,-7.61,-7.86,1
0.504,-7.61,-7.86,1
0.524,-7.61,-7.86,1
0.545,-7.49,-7.86,1
0.564,-7.49,-7.86,1
0.585,-7.49,-7.86,1
0.604,-7.61,-7.86,1
0.624,-7.61,-7.86,1
0.644,-7.49,-7.86,1
0.665,-7.61,-7.86,1
0.684,-7.61,-7.86,1
0.705,-7.61,-7.98,1
0.724,-7.49,-7.86,1
0.745,-7.61,-7.86,1
0.765,-7.61,-7.86,1
0.784,-7.61,-7.86,1
0.804,-7.49,-7.86,1
0.824,-7.61,-7.98,1
0.844,-7.61,-7.86,1
0.865,-7.61,-7.86,1
0.885,-7.61,-7.86,1
0.904,-7.61,-7.86,1
0.925,-7.49,-7.86,1
0.925,-7.61,-7.86,1
0.945,-7.49,-7.86,1
0.965,-7.49,-7.86,1
0.985,-7.49,-7.86,1
1.005,-7.49,-7.86,1
1.025,-7.61,-7.86,1
1.045,-7.61,-7.98,1
1.065,-7.61,-7.86,1
1.085,-7.61,-7.73,1
1.105,-7.61,-7.86,1
1.126,-7.61,-7.98,1
1.145,-7.61,-7.86,1
1.165,-7.49,-7.86,1
1.185,-7.61,-7.86,1
1.205,-7.49,-7.86,1
1.225,-7.61,-7.86,1
1.245,-7.49,-7.86,1
1.265,-7.49,-7.86,1
1.285,-7.61,-7.86,1
1.305,-7.61,-7.86,1
1.325,-7.49,-7.86,1
1.325,-7.61,-7.86,1
1.346,-7.61,-7.86,1
1.365,-7.61,-7.86,1
1.386,-7.61,-7.86,1
1.405,-7.61,-7.86,1
1.426,-7.49,-7.86,1
1.446,-7.49,-7.98,1
1.472,-7.49,-7.86,1
1.486,-7.61,-7.86,1
1.506,-7.61,-7.86,1
1.526,-7.61,-7.86,1
1.546,-7.61,-7.86,1
1.566,-7.61,-7.86,1
1.586,-7.61,-7.86,1
1.605,-7.61,-7.86,1
1.626,-7.49,-7.86,1
1.646,-7.61,-7.86,1
1.666,-7.49,-7.86,1
1.689,-7.61,-7.86,1
1.706,-7.49,-7.86,1
1.725,-7.49,-7.86,1
1.726,-7.61,-7.86,1
1.747,-7.61,-7.86,1
1.766,-7.49,-7.86,1
1.787,-7.49,-7.86,1
1.806,-7.49,-7.98,1
1.826,-7.49,-7.98,1
1.847,-7.61,-7.86,1
1.866,-7.61,-7.98,1
1.887,-7.61,-7.98,1
1.906,-7.61,-7.98,1
1.926,-7.49,-7.86,1
1.946,-7.61,-7.86,1
1.966,-7.61,-7.86,1
1.986,-7.49,-7.86,1
2.006,-7.61,-7.86,1
2.026,-7.61,-7.86,1
2.046,-7.61,-7.98,1
2.066,-7.61,-7.86,1
2.086,-7.61,-7.86,1
2.106,-7.49,-7.86,1
2.126,-7.61,-7.86,1
2.126,-7.49,-7.86,1
2.146,-7.61,-7.86,1
2.167,-7.49,-7.86,1
2.188,-7.49,-7.98,1
2.206,-7.49,-7.86,1
2.226,-7.49,-7.86,1
2.246,-7.61,-7.98,1
2.272,-7.49,-7.86,1
2.286,-7.49,-7.86,1
2.307,-7.61,-7.86,1
2.326,-7.61,-7.86,1
2.346,-7.49,-7.98,1
2.366,-7.49,-7.86,1
2.387,-7.61,-7.86,1
2.406,-7.49,-7.86,1
2.426,-7.61,-7.98,1
2.447,-7.61,-7.86,1
2.466,-7.49,-7.86,1
2.487,-7.49,-7.86,1
2.506,-7.49,-7.98,1
2.526,-7.61,-7.86,1
2.526,-7.61,-7.86,1
2.546,-7.61,-7.86,1
2.567,-7.61,-7.86,1
2.586,-7.49,-7.86,1
2.607,-7.61,-7.86,1
2.627,-7.61,-7.86,1
2.647,-7.49,-7.86,1
2.666,-7.49,-7.86,1
2.689,-7.49,-7.86,1
2.706,-7.61,-7.98,1
2.727,-7.61,-7.86,1
2.746,-7.61,-7.86,1
2.767,-7.61,-7.86,1
2.787,-7.61,-7.86,1
2.807,-7.49,-7.86,1
2.826,-7.49,-7.86,1
2.847,-7.49,-7.86,1
2.867,-7.61,-7.86,1
2.887,-7.49,-7.86,1
2.906,-7.61,-7.86,1
2.926,-7.61,-7.86,1
2.947,-7.61,-7.86,1
2.967,-7.61,-7.86,1
2.987,-7.61,-7.86,1
3.007,-7.61,-7.86,1
3.027,-7.49,-7.86,1
3.054,-7.49,-7.86,1
3.067,-7.61,-7.86,1
3.087,-7.49,-7.86,1
3.107,-7.49,-7.86,1
3.126,-7.61,-7.86,1
3.147,-7.49,-7.86,1
3.167,-7.61,-7.98,1
3.189,-7.49,-7.86,1
3.207,-7.61,-7.86,1
3.227,-7.61,-7.86,1
3.247,-7.49,-7.86,1
3.267,-7.49,-7.86,1
3.287,-7.61,-7.86,1
3.307,-7.61,-7.86,1
3.327,-7.49,-7.86,1
3.327,-7.37,-7.86,1
3.347,-7.37,-7.86,1
3.367,-7.37,-7.86,1
3.387,-7.37,-7.86,1
3.407,-7.37,-7.98,1
3.427,-7.37,-7.86,1
3.448,-7.49,-7.86,1
3.467,-7.49,-7.86,1
3.487,-7.49,-7.86,1
3.507,-7.49,-7.86,1
3.527,-7.49,-7.98,1
3.547,-7.49,-7.86,1
3.567,-7.49,-7.86,1
3.587,-7.49,-7.86,1
3.608,-7.49,-7.86,1
3.627,-7.49,-7.98,1
3.648,-7.49,-7.98,1
3.667,-7.49,-8.22,1
3.687,-7.61,-8.71,1
3.707,-7.49,-8.96,1
3.727,-7.49,-9.08,1
3.748,-7.61,-8.83,1
3.767,-7.49,-8.59,1
3.787,-7.61,-8.47,1
3.808,-7.49,-8.22,1
3.828,-7.61,-8.1,1
3.847,-7.61,-8.1,1
3.868,-7.49,-7.98,1
3.888,-7.61,-7.98,1
3.908,-7.49,-7.98,1
3.928,-7.61,-7.98,1
3.947,-7.49,-7.98,1
3.968,-7.61,-7.86,1
3.987,-7.61,-7.98,1
4.007,-7.49,-7.98,1
4.028,-7.61,-7.98,1
4.048,-7.49,-7.86,1
4.068,-7.61,-7.86,1
4.088,-7.61,-7.98,1
4.108,-7.61,-7.98,1
4.128,-7.61,-7.98,1
4.128,-7.61,-7.86,1
4.148,-7.49,-7.86,1
4.168,-7.61,-7.86,1
4.188,-7.49,-7.86,1
4.208,-7.61,-7.86,1
4.229,-7.61,-7.98,1
4.248,-7.49,-7.86,1
4.269,-7.61,-7.86,1
4.288,-7.49,-7.98,1
4.308,-7.61,-7.98,1
4.328,-7.49,-7.86,1
4.348,-7.49,-7.86,1
4.368,-7.49,-7.86,1
4.388,-7.49,-7.86,1
4.408,-7.61,-7.98,1
4.429,-7.61,-7.86,1
4.449,-7.61,-7.86,1
4.468,-7.49,-7.86,1
4.489,-7.49,-7.86,1
4.509,-7.49,-7.86,1
4.528,-7.61,-7.98,1
4.528,-7.61,-7.98,1
4.549,-7.49,-7.86,1
4.568,-6.63,-7.49,1
4.589,-5.29,-6.39,1
4.609,-4.44,-5.78,1
4.629,-3.7,-5.05,1
4.649,-3.21,-4.44,1
4.669,-2.6,-3.95,1
4.689,-2.36,-3.58,1
4.708,-2.11,-3.21,1
4.728,-1.75,-2.97,1
4.749,-1.5,-2.85,1
4.769,-1.38,-2.72,0
4.789,-1.26,-2.6,0
4.809,-1.14,-2.36,0
4.829,-0.77,-2.24,0
4.849,-0.77,-2.11,0
4.869,-0.89,-1.99,0
4.889,-0.77,-1.99,0
4.909,-0.77,-1.99,0
4.928,-0.53,-1.99,0
4.928,-0.53,-1.87,0
4.949,-0.65,-1.87,0
4.968,-0.53,-1.75,0
4.989,-0.53,-1.63,0
5.009,-0.4,-1.63,0
5.029,-0.4,-1.75,0
5.049,-0.53,-1.75,0
5.069,-0.65,-1.75,0
5.089,-0.4,-1.63,0
5.109,-0.28,-1.63,0
5.129,-0.28,-1.5,0
5.148,-0.28,-1.5,0
5.169,-1.26,-2.6,0
5.188,-3.34,-4.31,0
5.208,-4.92,-5.66,0
5.228,-6.76,-7.12,0
5.249,-9.08,-9.2,0
5.269,-10.06,-10.06,0
5.289,-10.42,-10.54,0
5.308,-10.79,-10.79,0
5.329,-11.03,-10.91,0
5.329,-11.03,-11.03,0
5.349,-11.03,-11.16,0
5.369,-11.16,-11.16,0
5.39,-11.28,-11.28,0
5.409,-11.28,-11.16,0
5.43,-11.28,-11.28,0
5.449,-11.28,-11.16,0
5.47,-11.4,-11.28,0
5.49,-11.4,-11.28,0
5.509,-11.28,-11.28,0
5.529,-11.4,-11.28,0
5.549,-11.4,-11.28,0
5.569,-11.4,-11.28,0
5.59,-11.4,-11.4,0
5.609,-11.4,-11.28,1
5.629,-11.4,-11.4,1
5.65,-11.4,-11.28,1
5.669,-11.4,-11.4,1
5.689,-11.4,-11.4,1
5.709,-11.4,-11.4,1
5.729,-11.4,-11.4,1
5.729,-11.28,-11.16,1
5.75,-10.67,-10.42,1
5.77,-10.06,-9.08,1
5.79,-8.47,-7.37,1
5.81,-6.76,-6.27,1
5.83,-5.54,-5.41,1
5.85,-4.56,-4.8,1
5.869,-4.07,-4.31,1
5.89,-3.46,-3.95,1
5.91,-3.21,-3.7,0
5.93,-2.6,-3.46,0
5.949,-2.11,-3.09,0
5.97,-1.99,-2.85,0
5.99,-1.75,-2.6,0
6.01,-1.63,-2.6,0
6.029,-1.26,-2.48,0
6.05,-1.14,-2.36,0
6.07,-1.14,-2.36,0
6.09,-1.14,-2.24,0
6.109,-1.14,-1.99,0
6.129,-0.77,-1.99,0
6.15,-0.77,-1.87,0
6.17,-0.77,-1.87,0
6.19,-0.77,-1.87,0
6.21,-0.65,-1.99,0
6.23,-0.65,-1.87,0
6.25,-0.65,-1.75,0
6.27,-0.65,-1.63,0
6.29,-0.77,-1.63,0
6.31,-0.4,-1.63,0
6.33,-0.04,-1.63,0
6.35,-0.4,-1.75,0
6.37,-1.38,-2.6,0
6.389,-3.46,-4.44,0
6.41,-5.17,-6.88,0
6.43,-6.88,-9.08,0
6.45,-8.96,-10.06,0
6.47,-9.93,-10.54,0
6.49,-10.54,-10.79,0
6.511,-10.91,-10.91,0
6.53,-11.03,-11.03,0
6.53,-11.03,-11.16,0
6.55,-11.16,-11.16,0
6.57,-11.28,-11.28,0
6.591,-11.4,-11.28,0
6.611,-11.28,-11.28,0
6.63,-11.28,-11.28,0
6.651,-11.28,-11.28,0
6.671,-11.4,-11.28,0
6.691,-11.4,-11.28,0
6.711,-11.4,-11.28,0
6.73,-11.4,-11.28,0
6.75,-11.4,-11.4,0
6.772,-11.52,-11.28,0
6.791,-11.4,-11.28,0
6.81,-11.4,-11.4,1
6.83,-11.4,-11.4,1
6.851,-11.52,-11.4,1
6.87,-11.4,-11.4,1
6.891,-11.4,-11.4,1
6.911,-11.4,-11.4,1
6.931,-11.4,-11.4,1
6.931,-11.28,-11.16,1
6.952,-10.79,-10.42,1
6.971,-10.06,-9.08,1
6.991,-8.83,-7.49,1
7.011,-7.0,-6.27,1
7.031,-5.9,-5.41,1
7.051,-4.68,-4.8,1
7.072,-4.07,-4.31,1
7.091,-3.46,-3.95,1
7.111,-3.21,-3.7,0
7.131,-2.72,-3.46,0
7.152,-2.11,-3.09,0
7.171,-1.99,-2.72,0
7.192,-1.75,-2.6,0
7.211,-1.63,-2.48,0
7.231,-1.38,-2.36,0
7.251,-1.01,-2.36,0
7.271,-1.14,-2.36,0
7.291,-1.01,-2.11,0
7.312,-1.01,-1.99,0
7.331,-0.89,-1.87,0
7.352,-0.65,-1.87,0
7.371,-0.65,-1.87,0
7.391,-0.77,-1.87,0
7.411,-0.77,-1.87,0
7.432,-0.77,-1.87,0
7.452,-0.53,-1.87,0
7.471,-0.65,-1.75,0
7.491,-0.65,-1.63,0
7.512,-0.4,-1.75,0
7.532,-0.16,-1.75,0
7.551,-0.16,-1.75,0
7.571,-1.38,-2.72,0
7.591,-3.46,-4.31,0
7.611,-5.17,-6.15,0
7.631,-6.88,-8.59,0
7.651,-8.83,-9.93,0
7.671,-9.93,-10.42,0
7.691,-10.42,-10.79,0
7.712,-10.79,-10.91,0
7.732,-11.03,-11.03,0
7.752,-11.03,-11.16,0
7.772,-11.16,-11.16,0
7.792,-11.28,-11.28,0
7.821,-11.28,-11.28,0
7.832,-11.28,-11.28,0
7.853,-11.28,-11.28,0
7.872,-11.4,-11.28,0
7.893,-11.4,-11.28,0
7.912,-11.4,-11.28,0
7.932,-11.4,-11.28,0
7.953,-11.4,-11.28,0
7.972,-11.4,-11.28,0
7.992,-11.4,-11.28,0
8.012,-11.4,-11.28,0
8.032,-11.4,-11.4,1
8.052,-11.4,-11.28,1
8.072,-11.4,-11.4,1
8.092,-11.4,-11.4,1
8.112,-11.4,-11.28,1
8.133,-11.4,-11.4,1
8.153,-11.4,-11.4,1
8.173,-11.28,-11.03,1
8.193,-10.67,-10.42,1
8.214,-9.93,-9.2,1
8.233,-8.59,-7.61,1
8.253,-6.88,-6.39,1
8.273,-5.66,-5.41,1
8.293,-4.56,-4.8,1
8.313,-3.82,-4.44,1
8.333,-3.34,-4.07,1
8.355,-2.97,-3.7,0
8.374,-2.72,-3.34,0
8.394,-2.11,-3.09,0
8.413,-1.99,-2.85,0
8.433,-1.75,-2.6,0
8.453,-1.38,-2.6,0
8.473,-1.38,-2.48,0
8.493,-1.01,-2.24,0
8.513,-1.14,-2.24,0
8.534,-1.01,-2.11,0
8.534,-1.01,-1.99,0
8.555,-0.89,-1.87,0
8.575,-0.53,-1.87,0
8.594,-0.53,-1.87,0
8.615,-0.65,-1.87,0
8.634,-0.65,-1.87,0
8.655,-0.77,-1.87,0
8.675,-0.53,-1.75,0
8.695,-0.53,-1.63,0
8.715,-0.4,-1.63,0
8.734,-0.4,-1.63,0
8.754,-0.28,-1.63,0
8.774,-0.16,-1.75,0
8.794,-1.38,-2.6,0
8.815,-3.46,-4.44,0
8.835,-5.17,-6.63,0
8.855,-6.88,-8.96,0
8.875,-8.96,-10.06,0
8.894,-9.93,-10.54,0
8.915,-10.54,-10.79,0
8.934,-10.91,-10.91,0
8.955,-10.91,-11.03,0
8.975,-11.03,-11.16,0
8.995,-11.16,-11.16,0
9.016,-11.28,-11.16,0
9.036,-11.28,-11.28,0
9.055,-11.28,-11.28,0
9.075,-11.4,-11.28,0
9.095,-11.4,-11.28,0
9.115,-11.4,-11.28,0
9.135,-11.28,-11.28,0
9.155,-11.4,-11.28,0
9.174,-11.4,-11.28,0
9.195,-11.4,-11.4,0
9.215,-11.4,-11.4,0
9.235,-11.4,-11.28,0
9.255,-11.4,-11.28,1
9.275,-11.4,-11.28,1
9.295,-11.4,-11.4,1
9.315,-11.4,-11.4,1
9.334,-11.4,-11.4,1
9.334,-11.4,-11.4,1
9.355,-11.4,-11.4,1
9.375,-11.28,-11.03,1
9.395,-10.67,-10.54,1
9.415,-9.81,-9.08,1
9.435,-8.22,-7.49,1
9.455,-6.51,-6.27,1
9.475,-5.41,-5.41,1
9.494,-4.44,-4.8,1
9.515,-3.82,-4.19,1
9.535,-3.21,-3.95,1
9.555,-2.85,-3.58,0
9.575,-2.6,-3.34,0
9.595,-1.87,-3.09,0
9.614,-1.75,-2.85,0
9.634,-1.63,-2.6,0
9.655,-1.38,-2.6,0
9.675,-1.38,-2.48,0
9.695,-1.26,-2.24,0
9.715,-1.14,-2.24,0
9.735,-1.01,-2.24,0
9.756,-1.01,-1.99,0
9.776,-0.65,-1.99,0
9.796,-0.77,-1.99,0
9.816,-0.89,-1.87,0
9.835,-0.65,-1.99,0
9.855,-1.01,-1.99,0
9.875,-0.65,-1.87,0
9.895,-0.53,-1.87,0
9.916,-0.65,-1.75,0
9.936,-0.53,-1.63,0
9.956,-0.4,-1.75,0
9.975,-0.53,-1.99,0
9.996,-2.48,-3.58,0
10.016,-4.56,-5.41,0
10.035,-6.15,-8.1,0
10.056,-8.35,-9.69,0
10.076,-9.81,-10.42,0
10.096,-10.42,-10.67,0
10.116,-10.79,-10.91,0
10.136,-10.91,-11.03,0
10.136,-11.03,-11.03,0
10.156,-11.16,-11.16,0
10.18,-11.28,-11.28,0
10.196,-11.28,-11.28,0
10.216,-11.28,-11.28,0
10.236,-11.28,-11.28,0
10.257,-11.28,-11.28,0
10.276,-11.4,-11.28,0
10.296,-11.28,-11.28,0
10.317,-11.28,-11.28,0
10.336,-11.4,-11.28,0
10.356,-11.4,-11.28,0
10.377,-11.4,-11.4,0
10.396,-11.4,-11.4,1
10.417,-11.4,-11.28,1
10.436,-11.4,-11.4,1
10.456,-11.4,-11.4,1
10.476,-11.4,-11.4,1
10.496,-11.4,-11.4,1
10.516,-11.4,-11.4,1
10.536,-11.28,-11.16,1
10.556,-10.79,-10.54,1
10.577,-10.06,-9.2,1
10.596,-8.71,-7.61,1
10.617,-6.88,-6.27,1
10.637,-5.29,-5.29,1
10.656,-4.68,-4.8,1
10.686,-3.95,-4.31,1
10.696,-3.34,-3.95,1
10.717,-2.97,-3.58,0
10.737,-2.6,-3.34,0
10.757,-2.11,-3.09,0
10.777,-1.87,-2.85,0
10.797,-1.63,-2.72,0
10.817,-1.38,-2.48,0
10.837,-1.5,-2.48,0
10.856,-1.14,-2.36,0
10.876,-1.14,-2.24,0
10.897,-1.01,-1.99,0
10.917,-1.01,-2.11,0
10.937,-0.89,-1.87,0
10.957,-0.77,-1.87,0
10.978,-0.77,-1.87,0
11.005,-0.65,-1.87,0
11.018,-0.65,-1.75,0
11.038,-0.65,-1.75,0
11.057,-0.53,-1.63,0
11.078,-0.4,-1.63,0
11.098,-0.4,-1.63,0
11.118,-0.4,-1.5,0
11.138,-0.28,-1.63,0
11.157,-2.11,-3.21,0
11.186,-4.19,-4.8,0
11.198,-5.66,-6.51,0
11.217,-7.98,-8.96,0
11.238,-9.57,-10.18,0
11.258,-10.3,-10.54,0
11.277,-10.67,-10.79,0
11.298,-10.91,-11.03,0
11.317,-11.03,-11.03,0
11.338,-11.16,-11.16,0
11.339,-11.28,-11.16,0
11.359,-11.28,-11.28,0
11.379,-11.28,-11.16,0
11.399,-11.28,-11.28,0
11.419,-11.4,-11.28,0
11.439,-11.4,-11.28,0
11.459,-11.28,-11.28,0
11.479,-11.4,-11.28,0
11.499,-11.4,-11.28,0
11.519,-11.4,-11.28,0
11.539,-11.4,-11.4,0
11.559,-11.4,-11.28,0
11.579,-11.4,-11.4,1
11.599,-11.4,-11.4,1
11.619,-11.4,-11.4,1
11.639,-11.4,-11.4,1
11.659,-11.4,-11.4,1
11.679,-11.4,-11.4,1
11.699,-11.4,-11.28,1
11.719,-10.91,-10.67,1
11.739,-10.18,-9.45,1
11.739,-8.96,-7.61,1
11.759,-7.12,-6.27,1
11.779,-5.54,-5.41,1
11.799,-4.68,-4.8,1
11.819,-3.95,-4.31,1
11.839,-3.46,-3.95,0
11.859,-3.09,-3.58,0
11.879,-2.48,-3.21,0
11.899,-2.24,-2.97,0
11.919,-1.87,-2.72,0
11.939,-1.63,-2.6,0
11.959,-1.38,-2.48,0
11.979,-1.5,-2.36,0
11.999,-1.14,-2.36,0
12.019,-1.14,-2.24,0
12.039,-1.14,-2.11,0
12.059,-0.89,-1.99,0
12.079,-0.89,-1.99,0
12.099,-0.77,-1.99,0
12.119,-0.77,-1.99,0
12.139,-0.65,-1.99,0
12.139,-0.65,-1.87,0
12.159,-0.65,-1.75,0
12.179,-0.65,-1.75,0
12.199,-0.65,-1.63,0
12.219,-0.4,-1.63,0
12.239,-0.53,-1.75,0
12.259,-0.4,-1.63,0
12.279,-1.87,-3.09,0
12.299,-4.07,-4.8,0
12.319,-5.41,-7.25,0
12.339,-7.61,-9.32,0
12.359,-9.57,-10.18,0
12.379,-10.18,-10.67,0
12.399,-10.79,-10.91,0
12.419,-10.91,-11.03,0
12.439,-11.03,-11.16,0
12.459,-11.16,-11.16,0
12.479,-11.28,-11.16,0
12.499,-11.28,-11.28,0
12.519,-11.28,-11.28,0
12.539,-11.4,-11.28,0
12.539,-11.4,-11.28,0
12.56,-11.4,-11.28,0
12.579,-11.28,-11.28,0
12.599,-11.4,-11.28,0
12.619,-11.4,-11.4,0
12.639,-11.4,-11.28,0
12.659,-11.4,-11.4,0
12.679,-11.4,-11.4,0
12.7,-11.28,-11.4,0
12.719,-11.4,-11.4,1
12.739,-11.4,-11.28,1
12.759,-11.4,-11.4,1
12.779,-11.4,-11.4,1
12.8,-11.4,-11.4,1
12.82,-11.4,-11.28,1
12.839,-10.91,-10.79,1
12.859,-10.3,-9.69,1
12.88,-9.32,-7.86,1
12.9,-7.37,-6.51,1
12.919,-5.78,-5.54,1
12.939,-4.8,-4.8,1
12.959,-3.95,-4.44,1
12.98,-3.58,-4.07,0
13.0,-3.21,-3.7,0
13.02,-2.6,-3.34,0
13.04,-2.24,-2.97,0
13.06,-1.99,-2.72,0
13.08,-1.63,-2.6,0
13.1,-1.38,-2.48,0
13.119,-1.5,-2.24,0
13.139,-1.14,-2.24,0
13.16,-1.14,-2.11,0
13.179,-1.14,-1.99,0
13.199,-0.89,-1.87,0
13.219,-0.89,-1.87,0
13.24,-0.77,-1.75,0
13.26,-0.65,-1.87,0
13.28,-0.77,-1.87,0
13.3,-0.77,-1.63,0
13.32,-0.65,-1.75,0
13.34,-0.65,-1.63,0
13.34,-0.77,-1.5,0
13.36,-0.4,-1.63,0
13.38,-0.53,-1.63,0
13.401,-0.4,-1.5,0
13.42,-1.5,-2.72,0
13.44,-3.7,-4.68,0
13.461,-5.41,-7.25,0
13.481,-7.25,-9.32,0
13.5,-9.32,-10.3,0
13.52,-10.18,-10.67,0
13.54,-10.67,-10.91,0
13.561,-10.91,-11.03,0
13.58,-10.91,-11.03,0
13.6,-11.16,-11.16,0
13.621,-11.28,-11.16,0
13.64,-11.28,-11.28,0
13.661,-11.28,-11.28,0
13.68,-11.28,-11.28,0
13.701,-11.4,-11.28,0
13.72,-11.28,-11.28,0
13.74,-11.28,-11.28,0
13.74,-11.28,-11.28,0
13.761,-11.4,-11.4,0
13.781,-11.4,-11.28,0
13.8,-11.4,-11.4,0
13.821,-11.4,-11.4,0
13.84,-11.4,-11.28,0
13.861,-11.4,-11.4,1
13.88,-11.4,-11.4,1
13.901,-11.52,-11.4,1
13.921,-11.4,-11.4,1
13.94,-11.52,-11.4,1
13.961,-11.52,-11.4,1
13.981,-11.03,-10.91,1
14.001,-10.42,-9.93,1
14.02,-9.69,-8.22,1
14.041,-7.86,-6.63,1
14.061,-6.39,-5.66,1
14.081,-5.17,-4.92,1
14.101,-4.44,-4.44,1
14.121,-3.7,-4.07,0
14.144,-3.21,-3.7,0
14.164,-2.72,-3.34,0
14.185,-2.48,-3.09,0
14.204,-1.87,-2.85,0
14.224,-1.75,-2.72,0
14.244,-1.5,-2.48,0
14.265,-1.38,-2.36,0
14.285,-1.38,-2.36,0
14.304,-1.14,-2.24,0
14.324,-1.01,-2.11,0
14.345,-1.01,-1.99,0
14.364,-0.89,-1.87,0
14.384,-0.77,-1.87,0
14.404,-0.77,-1.99,0
14.424,-0.77,-1.99,0
14.444,-0.65,-1.87,0
14.464,-0.77,-1.87,0
14.485,-0.65,-1.63,0
14.505,-0.53,-1.63,0
14.525,-0.53,-1.63,0
14.545,-0.4,-1.63,0
14.546,-0.28,-1.63,0
14.566,-1.01,-2.48,0
14.586,-3.21,-4.19,0
14.606,-5.05,-6.27,0
14.626,-6.88,-8.83,0
14.646,-9.08,-9.93,0
14.666,-9.93,-10.54,0
14.687,-10.54,-10.79,0
14.706,-10.79,-10.91,0
14.726,-10.91,-11.03,0
14.747,-11.03,-11.16,0
14.766,-11.16,-11.16,0
14.786,-11.28,-11.28,0
14.806,-11.28,-11.28,0
14.826,-11.28,-11.28,0
14.847,-11.4,-11.16,0
14.866,-11.4,-11.28,0
14.887,-11.28,-11.28,0
14.907,-11.28,-11.28,0
14.926,-11.4,-11.28,0
14.946,-11.4,-11.4,0
14.966,-11.4,-11.4,0
14.986,-11.4,-11.4,0
15.006,-11.28,-11.4,0
15.027,-11.4,-11.4,1
15.046,-11.4,-11.4,1
15.067,-11.4,-11.4,1
15.086,-11.4,-11.4,1
15.107,-11.4,-11.4,1
15.127,-11.4,-11.4,1
15.146,-11.16,-11.03,1
15.167,-10.54,-10.3,1
15.186,-9.69,-8.47,1
15.207,-8.1,-6.88,1
15.226,-6.39,-5.78,1
15.246,-5.17,-5.05,1
15.266,-4.44,-4.56,1
15.286,-3.7,-4.19,0
15.306,-3.21,-3.7,0
15.327,-2.85,-3.46,0
15.347,-2.48,-3.09,0
15.347,-2.24,-2.85,0
15.367,-1.63,-2.72,0
15.388,-1.5,-2.48,0
15.407,-1.38,-2.36,0
15.428,-1.38,-2.48,0
15.448,-1.01,-2.24,0
15.467,-1.01,-1.99,0
15.488,-1.01,-1.99,0
15.507,-0.77,-1.87,0
15.527,-0.89,-1.87,0
15.548,-0.53,-1.99,0
15.568,-0.65,-1.87,0
15.587,-0.65,-1.75,0
15.608,-0.53,-1.75,0
15.628,-0.77,-1.63,0
15.647,-0.53,-1.5,0
15.668,-0.4,-1.63,0
15.687,-0.4,-1.75,0
15.707,-0.53,-1.63,0
15.728,-0.65,-2.11,0
15.748,-2.72,-4.07,0
15.769,-4.68,-6.27,0
15.788,-6.15,-8.83,0
15.808,-8.47,-9.93,0
15.828,-9.69,-10.54,0
15.849,-10.54,-10.79,0
15.868,-10.79,-11.03,0
15.888,-10.91,-11.16,0
15.908,-11.03,-11.16,0
15.928,-11.28,-11.28,0
15.948,-11.28,-11.16,0
15.968,-11.28,-11.28,0
15.988,-11.4,-11.28,0
16.009,-11.4,-11.28,0
16.029,-11.4,-11.28,0
16.055,-11.28,-11.28,0
16.069,-11.4,-11.4,0
16.088,-11.4,-11.4,0
16.108,-11.4,-11.4,0
16.129,-11.4,-11.4,0
16.148,-11.4,-11.4,0
16.148,-11.4,-11.4,0
16.169,-11.4,-11.4,1
16.189,-11.4,-11.4,1
16.209,-11.4,-11.4,1
16.229,-11.4,-11.4,1
16.249,-11.4,-11.4,1
16.269,-11.4,-11.4,1
16.288,-11.28,-11.16,1
16.309,-10.67,-10.42,1
16.329,-9.93,-8.96,1
16.349,-8.71,-7.12,1
16.369,-7.0,-6.02,1
16.389,-5.54,-5.29,1
16.409,-4.68,-4.68,1
16.429,-4.07,-4.31,0
16.449,-3.34,-3.95,0
16.468,-2.97,-3.46,0
16.489,-2.36,-3.09,0
16.509,-2.24,-2.85,0
16.529,-1.75,-2.6,0
16.548,-1.5,-2.48,0
16.569,-1.38,-2.48,0
16.589,-1.38,-2.24,0
16.609,-1.26,-2.24,0
16.629,-1.14,-2.11,0
16.649,-1.01,-1.99,0
16.669,-0.89,-1.99,0
16.689,-0.89,-1.87,0
16.709,-0.65,-1.87,0
16.729,-0.77,-1.87,0
16.749,-0.77,-1.87,0
16.769,-0.77,-1.63,0
16.79,-0.65,-1.63,0
16.81,-0.53,-1.63,0
16.837,-0.65,-1.5,0
16.849,-0.4,-1.5,0
16.869,-0.4,-1.63,0
16.889,-0.65,-1.5,0
16.909,-2.48,-3.58,0
16.929,-4.56,-5.54,0
16.949,-6.02,-8.35,0
16.971,-8.35,-9.81,0
16.989,-9.69,-10.42,0
17.01,-10.42,-10.67,0
17.03,-10.79,-10.91,0
17.05,-10.91,-11.03,0
17.07,-11.03,-11.16,0
17.09,-11.16,-11.16,0
17.11,-11.28,-11.16,0
17.129,-11.28,-11.28,0
17.15,-11.28,-11.28,0
17.17,-11.4,-11.28,0
17.191,-11.4,-11.28,0
17.21,-11.28,-11.28,0
17.23,-11.4,-11.28,0
17.25,-11.4,-11.4,0
17.27,-11.4,-11.4,0
17.29,-11.4,-11.4,0
17.31,-11.4,-11.4,0
17.33,-11.4,-11.4,0
17.35,-11.4,-11.4,0
17.37,-11.4,-11.4,1
17.39,-11.4,-11.4,1
17.41,-11.4,-11.4,1
17.431,-11.4,-11.4,1
17.45,-11.4,-11.4,1
17.471,-11.28,-11.16,1
17.49,-10.79,-10.54,1
17.511,-10.06,-9.2,1
17.531,-8.83,-7.49,1
17.551,-6.88,-6.15,1
17.571,-5.66,-5.29,1
17.591,-4.56,-4.8,1
17.61,-4.07,-4.31,0
17.63,-3.34,-3.95,0
17.651,-2.97,-3.58,0
17.671,-2.48,-3.09,0
17.69,-2.24,-2.85,0
17.711,-1.87,-2.72,0
17.73,-1.5,-2.48,0
17.75,-1.38,-2.48,0
17.771,-1.14,-2.48,0
17.79,-1.38,-2.24,0
17.811,-1.01,-2.11,0
17.831,-1.01,-1.99,0
17.85,-1.01,-1.87,0
17.871,-0.77,-1.87,0
17.89,-0.77,-1.87,0
17.911,-0.77,-1.87,0
17.931,-0.77,-1.75,0
17.951,-0.77,-1.87,0
17.971,-0.65,-1.63,0
17.99,-0.65,-1.63,0
18.01,-0.53,-1.63,0
18.031,-0.4,-1.63,0
18.051,-0.28,-1.63,0
18.07,-0.53,-1.63,0
18.09,-2.11,-3.21,1
18.111,-4.19,-5.05,0
18.131,-5.78,-7.73,0
18.152,-7.86,-9.57,0
18.152,-9.57,-10.42,0
18.172,-10.42,-10.79,0
18.192,-10.67,-10.91,0
18.212,-10.91,-11.03,0
18.232,-11.03,-11.16,0
18.252,-11.16,-11.16,0
18.272,-11.28,-11.28,0
18.292,-11.28,-11.28,0
18.313,-11.28,-11.28,0
18.332,-11.4,-11.28,0
18.352,-11.4,-11.28,0
18.372,-11.4,-11.28,0
18.392,-11.28,-11.28,0
18.412,-11.4,-11.28,0
18.432,-11.4,-11.28,0
18.452,-11.4,-11.4,0
18.472,-11.4,-11.4,0
18.492,-11.4,-11.28,0
18.512,-11.4,-11.4,0
18.532,-11.4,-11.4,1
18.552,-11.4,-11.4,1
18.552,-11.4,-11.4,1
18.573,-11.4,-11.4,1
18.593,-11.4,-11.4,1
18.613,-11.4,-11.28,1
18.633,-10.91,-10.79,1
18.653,-10.06,-9.45,1
18.673,-9.08,-7.61,1
18.692,-7.12,-6.27,1
18.712,-5.78,-5.54,1
18.733,-4.68,-4.8,1
18.752,-4.19,-4.44,0
18.773,-3.58,-4.07,0
18.793,-2.97,-3.46,0
18.813,-2.6,-3.21,0
18.833,-1.99,-2.97,0
18.853,-1.99,-2.72,0
18.873,-1.63,-2.6,0
18.893,-1.5,-2.6,0
18.913,-1.26,-2.48,0
18.933,-1.26,-2.24,0
18.953,-1.26,-2.24,0
18.974,-1.01,-1.99,0
18.994,-0.89,-1.99,0
19.014,-0.65,-1.99,0
19.034,-0.89,-1.87,0
19.054,-0.77,-1.87,0
19.074,-0.77,-1.87,0
19.094,-0.77,-1.75,0
19.114,-0.53,-1.75,0
19.134,-0.53,-1.75,0
19.154,-0.65,-1.63,0
19.174,-0.4,-1.63,0
19.194,-0.28,-1.75,0
19.214,-0.4,-1.63,0
19.234,-1.87,-2.97,0
19.254,-3.95,-4.68,0
19.274,-5.54,-7.0,0
19.294,-7.61,-9.2,0
19.314,-9.32,-10.18,0
19.334,-10.3,-10.54,0
19.354,-10.67,-10.79,0
19.375,-10.91,-11.03,0
19.395,-11.03,-11.16,0
19.415,-11.16,-11.16,0
19.435,-11.28,-11.16,0
19.454,-11.28,-11.28,0
19.475,-11.28,-11.28,0
19.495,-11.4,-11.28,0
19.515,-11.28,-11.28,0
19.535,-11.28,-11.28,0
19.555,-11.4,-11.28,0
19.575,-11.4,-11.4,0
19.595,-11.4,-11.28,0
19.615,-11.4,-11.4,0
19.634,-11.4,-11.4,0
19.654,-11.4,-11.4,0
19.674,-11.4,-11.4,0
19.695,-11.4,-11.4,0
19.715,-11.4,-11.4,1
19.734,-11.4,-11.4,1
19.754,-11.4,-11.4,1
19.774,-11.4,-11.4,1
19.794,-11.4,-11.28,1
19.815,-11.03,-10.79,1
19.834,-10.3,-9.93,1
19.855,-9.32,-8.22,1
19.875,-7.37,-6.63,1
19.895,-5.9,-5.66,1
19.915,-4.8,-5.05,1
19.935,-4.19,-4.44,0
19.955,-3.58,-4.19,0
19.975,-3.09,-3.7,0
19.995,-2.72,-3.34,0
20.015,-2.11,-3.09,0
20.035,-2.11,-2.72,0
20.055,-1.75,-2.6,0
20.075,-1.38,-2.6,0
20.094,-1.38,-2.48,0
20.115,-1.14,-2.24,0
20.135,-1.26,-2.24,0
20.155,-1.14,-2.11,0
20.176,-1.01,-1.99,0
20.196,-0.77,-1.99,0
20.215,-0.89,-1.99,0
20.235,-0.89,-1.87,0
20.256,-0.65,-1.87,0
20.275,-0.89,-1.87,0
20.295,-0.65,-1.63,0
20.316,-0.65,-1.75,0
20.336,-0.53,-1.63,0
20.356,-0.53,-1.63,0
20.376,-0.4,-1.75,0
20.396,-0.28,-1.63,0
20.416,-1.63,-2.85,0
20.436,-3.7,-4.8,0
20.456,-5.29,-6.27,0
20.476,-6.63,-7.61,0
20.496,-8.71,-9.45,0
20.516,-10.06,-10.3,0
20.536,-10.54,-10.67,0
20.556,-10.79,-10.91,0
20.556,-11.03,-11.03,0
20.576,-11.16,-11.16,0
20.596,-11.28,-11.16,0
20.616,-11.28,-11.28,0
20.636,-11.28,-11.28,0
20.656,-11.28,-11.28,0
20.677,-11.4,-11.28,0
20.697,-11.28,-11.28,0
20.716,-11.28,-11.28,0
20.736,-11.4,-11.28,0
20.756,-11.4,-11.28,0
20.777,-11.4,-11.28,0
20.797,-11.4,-11.28,0
20.817,-11.4,-11.4,0
20.837,-11.4,-11.4,0
20.857,-11.4,-11.28,0
20.876,-11.4,-11.4,0
20.897,-11.4,-11.4,1
20.917,-11.4,-11.4,1
20.936,-11.4,-11.4,1
20.956,-11.4,-11.4,1
20.976,-11.03,-10.91,1
20.996,-10.42,-10.18,1
21.017,-9.45,-8.96,1
21.036,-7.61,-7.37,1
21.057,-6.02,-6.15,1
21.076,-4.92,-5.41,1
21.096,-4.19,-4.8,0
21.117,-3.7,-4.31,0
21.137,-3.09,-3.82,0
21.157,-2.85,-3.46,0
21.176,-2.11,-3.09,0
21.196,-2.11,-2.97,0
21.217,-1.75,-2.85,0
21.237,-1.5,-2.6,0
21.256,-1.38,-2.48,0
21.277,-1.38,-2.36,0
21.297,-1.38,-2.24,0
21.317,-1.01,-2.11,0
21.337,-1.01,-2.11,0
21.356,-0.77,-1.87,0
21.356,-0.89,-1.99,0
21.377,-0.77,-1.99,0
21.397,-0.77,-1.75,0
21.417,-0.89,-1.87,0
21.437,-0.65,-1.75,0
21.457,-0.65,-1.63,0
21.477,-0.53,-1.75,0
21.497,-0.53,-1.75,0
21.517,-0.4,-1.63,0
21.537,-0.28,-1.5,0
21.557,-1.38,-2.48,0
21.577,-3.46,-4.44,0
21.598,-5.17,-6.88,0
21.617,-6.76,-9.2,0
21.637,-8.96,-10.18,0
21.656,-10.18,-10.67,0
21.685,-10.67,-10.91,0
21.697,-10.91,-11.03,0
21.716,-10.91,-11.03,0
21.737,-11.03,-11.16,0
21.757,-11.16,-11.16,0
21.757,-11.28,-11.28,0
21.778,-11.28,-11.28,0
21.797,-11.28,-11.28,0
21.818,-11.28,-11.28,0
21.838,-11.28,-11.28,0
21.857,-11.4,-11.4,0
21.877,-11.28,-11.28,0
21.898,-11.4,-11.28,0
21.918,-11.4,-11.4,0
21.938,-11.4,-11.4,0
21.958,-11.4,-11.4,0
21.977,-11.4,-11.4,0
21.998,-11.4,-11.4,0
22.018,-11.4,-11.4,1
22.038,-11.4,-11.4,1
22.058,-11.52,-11.4,1
22.078,-11.4,-11.4,1
22.097,-11.52,-11.4,1
22.118,-11.16,-10.91,1
22.139,-10.54,-10.06,1
22.157,-9.81,-8.35,1
22.186,-8.35,-6.76,1
22.198,-6.51,-5.78,1
22.218,-5.41,-5.05,1
22.237,-4.44,-4.56,0
22.258,-3.82,-4.19,0
22.278,-3.46,-3.7,0
22.298,-2.97,-3.34,0
22.318,-2.36,-3.09,0
22.338,-1.87,-2.72,0
22.358,-1.99,-2.6,0
22.378,-1.63,-2.6,0
22.397,-1.38,-2.48,0
22.418,-1.26,-2.24,0
22.438,-1.26,-2.24,0
22.458,-1.26,-2.11,0
22.479,-0.89,-1.99,0
22.497,-0.89,-1.99,0
22.518,-0.65,-1.99,0
22.538,-0.89,-1.99,0
22.558,-0.77,-1.99,0
22.578,-0.77,-1.87,0
22.598,-0.89,-1.75,0
22.618,-0.53,-1.75,0
22.638,-0.4,-1.75,0
22.658,-0.53,-1.63,0
22.678,-0.28,-1.75,0
22.698,-0.28,-1.5,0
22.718,-0.89,-2.24,0
22.738,-3.09,-4.31,0
22.758,-4.92,-6.51,0
22.779,-6.63,-9.08,0
22.799,-8.83,-10.18,0
22.818,-10.18,-10.54,0
22.838,-10.54,-10.79,0
22.858,-10.91,-11.03,0
22.879,-11.03,-11.16,0
22.898,-11.16,-11.16,0
22.919,-11.16,-11.16,0
22.938,-11.28,-11.16,0
22.958,-11.28,-11.28,0
22.958,-11.4,-11.28,0
22.978,-11.4,-11.28,0
22.999,-11.4,-11.28,0
23.019,-11.4,-11.28,0
23.038,-11.4,-11.28,0
23.058,-11.4,-11.28,0
23.079,-11.4,-11.4,0
23.098,-11.4,-11.28,0
23.119,-11.4,-11.4,0
23.138,-11.4,-11.28,0
23.158,-11.4,-11.28,0
23.186,-11.4,-11.4,1
23.198,-11.4,-11.4,1
23.219,-11.4,-11.4,1
23.238,-11.4,-11.4,1
23.258,-11.4,-11.4,1
23.278,-11.16,-11.03,1
23.298,-10.54,-10.3,1
23.318,-9.69,-8.47,1
23.338,-7.86,-6.88,1
23.358,-6.15,-5.78,1
23.358,-5.05,-5.17,1
23.379,-4.19,-4.56,0
23.399,-3.82,-4.19,0
23.419,-3.34,-3.82,0
23.438,-2.85,-3.34,0
23.459,-2.36,-3.09,0
23.479,-1.87,-2.85,0
23.498,-1.87,-2.72,0
23.519,-1.5,-2.6,0
23.539,-1.38,-2.36,0
23.559,-1.14,-2.24,0
23.579,-1.26,-2.24,0
23.598,-1.26,-2.11,0
23.619,-0.89,-1.99,0
23.639,-0.89,-1.99,0
23.659,-0.65,-1.99,0
23.678,-0.89,-1.99,0
23.698,-0.89,-1.99,0
23.719,-0.77,-1.87,0
23.74,-0.77,-1.75,0
23.759,-0.53,-1.75,0
23.78,-0.53,-1.63,0
23.799,-0.65,-1.63,0
23.819,-0.53,-1.75,0
23.839,-0.28,-1.63,0
23.859,-0.77,-1.99,0
23.879,-2.97,-3.95,1
23.9,-4.92,-5.54,0
23.919,-6.39,-7.73,0
23.939,-8.71,-9.69,0
23.959,-10.06,-10.3,0
23.979,-10.54,-10.67,0
24.0,-10.79,-10.91,0
24.019,-11.03,-11.03,0
24.04,-11.16,-11.16,0
24.059,-11.16,-11.16,0
24.079,-11.28,-11.16,0
24.099,-11.28,-11.28,0
24.119,-11.28,-11.28,0
24.139,-11.4,-11.28,0
24.159,-11.4,-11.28,0
24.159,-11.4,-11.28,0
24.179,-11.28,-11.28,0
24.199,-11.4,-11.28,0
24.219,-11.4,-11.4,0
24.239,-11.4,-11.4,0
24.26,-11.4,-11.4,0
24.279,-11.4,-11.28,0
24.3,-11.28,-11.4,0
24.32,-11.4,-11.4,0
24.34,-11.4,-11.4,1
24.36,-11.52,-11.4,1
24.379,-11.4,-11.4,1
24.399,-11.4,-11.4,1
24.42,-11.28,-11.16,1
24.439,-10.67,-10.54,1
24.459,-9.93,-9.45,1
24.48,-8.47,-7.73,1
24.499,-6.63,-6.27,1
24.519,-5.29,-5.54,1
24.539,-4.44,-4.92,0
24.559,-3.82,-4.44,0
24.559,-3.46,-4.07,0
24.58,-2.97,-3.58,0
24.599,-2.6,-3.21,0
24.62,-1.99,-2.97,0
24.639,-1.99,-2.72,0
24.66,-1.87,-2.6,0
24.68,-1.38,-2.6,0
24.699,-1.38,-2.48,0
24.719,-1.14,-2.24,0
24.739,-1.26,-2.24,0
24.759,-1.14,-1.99,0
24.779,-1.01,-1.99,0
24.8,-0.65,-2.11,0
24.82,-0.77,-2.11,0
24.84,-0.89,-1.87,0
24.859,-0.77,-1.87,0
24.879,-0.89,-1.87,0
24.899,-0.77,-1.75,0
24.919,-0.65,-1.87,0
24.94,-0.65,-1.75,0
24.959,-0.65,-1.63,0
24.959,-0.28,-1.75,0
24.98,-0.53,-1.87,0
25.0,-2.6,-3.7,0
25.02,-4.68,-5.29,0
25.039,-6.02,-6.88,0
25.06,-8.35,-9.2,0
25.08,-9.93,-10.18,0
25.099,-10.42,-10.67,0
25.12,-10.79,-10.91,0
25.14,-11.03,-11.03,0
25.16,-11.03,-11.03,0
25.18,-11.16,-11.16,0
25.199,-11.28,-11.16,0
25.22,-11.28,-11.28,0
25.24,-11.28,-11.28,0
25.259,-11.28,-11.28,0
25.279,-11.4,-11.28,0
25.3,-11.4,-11.28,0
25.32,-11.4,-11.28,0
25.34,-11.4,-11.28,0
25.36,-11.28,-11.28,0
25.381,-11.4,-11.28,0
25.401,-11.4,-11.4,0
25.421,-11.4,-11.4,0
25.441,-11.4,-11.4,0
25.46,-11.4,-11.28,0
25.481,-11.4,-11.4,1
25.5,-11.4,-11.4,1
25.521,-11.4,-11.4,1
25.541,-11.52,-11.4,1
25.561,-11.28,-11.16,1
25.581,-10.79,-10.54,1
25.601,-10.06,-9.08,1
25.621,-8.71,-7.25,1
25.64,-7.0,-6.02,1
25.661,-5.29,-5.41,1
25.681,-4.56,-4.8,0
25.7,-3.82,-4.19,0
25.721,-3.58,-3.82,0
25.74,-3.09,-3.46,0
25.761,-2.6,-3.09,0
25.762,-1.99,-2.85,0
25.782,-1.87,-2.72,0
25.802,-1.87,-2.6,0
25.822,-1.38,-2.48,0
25.842,-1.38,-2.36,0
25.862,-1.14,-2.24,0
25.882,-1.26,-2.11,0
25.903,-1.26,-2.11,0
25.922,-1.01,-1.99,0
25.942,-0.65,-1.99,0
25.962,-0.65,-1.99,0
25.982,-0.77,-1.87,0
26.002,-0.77,-1.75,0
26.022,-0.89,-1.75,0
26.042,-0.53,-1.63,0
26.062,-0.4,-1.63,0
26.082,-0.53,-1.63,0
26.102,-0.53,-1.5,0
26.122,-0.28,-1.5,0
26.142,-0.28,-1.5,0
26.162,-2.24,-3.34,0
26.162,-4.19,-5.29,0
26.182,-5.66,-8.1,0
26.202,-7.98,-9.81,0
26.222,-9.81,-10.42,0
26.242,-10.3,-10.79,0
26.262,-10.79,-10.91,0
26.283,-10.91,-11.03,0
26.303,-11.03,-11.16,0
26.322,-11.16,-11.16,0
26.342,-11.28,-11.16,0
26.362,-11.28,-11.16,0
26.382,-11.28,-11.28,0
26.403,-11.28,-11.28,0
26.422,-11.4,-11.4,0
26.443,-11.4,-11.28,0
26.462,-11.28,-11.28,0
26.483,-11.4,-11.4,0
26.502,-11.4,-11.28,0
26.523,-11.4,-11.4,0
26.543,-11.4,-11.4,0
26.563,-11.4,-11.4,0
26.583,-11.4,-11.28,0
26.603,-11.4,-11.4,0
26.624,-11.4,-11.4,0
26.644,-11.4,-11.4,1
26.663,-11.52,-11.4,1
26.684,-11.4,-11.4,1
26.705,,,
26.723,-11.4,-11.16,1
26.744,-10.79,-10.67,1
26.763,-10.18,-9.57,1
26.783,-9.08,-7.86,1
26.803,-7.12,-6.39,1
26.823,,,
26.843,-5.54,-5.54,1
26.863,-4.68,-4.92,0
26.884,-3.95,-4.31,0
26.903,-3.46,-3.95,0
26.924,-3.21,-3.46,0
26.943,-2.6,-3.09,0
26.963,-1.99,-2.97,0
26.975,-1.75,-2.72,0
26.995,-1.87,-2.6,0
27.015,,,
27.035,-1.5,-2.6,0
27.055,-1.26,-2.36,0
27.075,-1.14,-2.11,0
27.095,-1.14,-2.11,0
27.116,-1.38,-2.11,0
27.135,-1.01,-1.99,0
27.155,-0.65,-2.11,0
27.175,-0.65,-1.99,0
27.195,-0.89,-1.87,0
27.216,,,
27.235,-0.89,-1.99,0
27.255,-0.77,-1.75,0
27.275,-0.65,-1.75,0
27.296,-0.53,-1.75,0
27.315,-0.65,-1.75,0
27.336,-0.65,-1.63,0
27.355,-0.4,-1.63,0
27.376,-0.4,-1.63,0
27.396,-1.87,-3.09,0
27.416,-4.07,-5.17,0
27.437,-5.54,-7.98,0
27.457,-6.88,-9.69,0
27.479,-9.2,-10.3,0
27.499,-10.06,-10.67,0
27.524,-10.67,-10.91,0
27.548,-10.91,-11.03,0
27.572,-11.03,-11.16,0
27.597,-11.03,-11.16,0
27.618,,,
27.618,,,
27.636,-11.28,-11.28,0
27.656,-11.28,-11.28,0
27.676,-11.28,-11.28,0
27.696,-11.28,-11.28,0
27.716,-11.28,-11.28,0
27.74,-11.4,-11.28,0
27.761,,,
27.776,-11.28,-11.28,0
27.786,,,
27.807,-11.28,-11.4,0
27.827,-11.28,-11.4,0
27.846,-11.4,-11.28,0
27.867,-11.4,-11.28,0
27.886,-11.4,-11.28,0
27.909,-11.4,-11.28,0
27.929,,,
27.946,-11.4,-11.4,0
27.967,-11.4,-11.4,1
27.987,-11.4,-11.4,1
28.006,-11.4,-11.4,1
28.027,-11.52,-11.4,1
28.051,-11.4,-11.28,1
28.076,-11.03,-10.79,1
28.096,,,
28.106,-10.3,-9.69,1
28.127,-9.2,-7.73,1
28.147,-7.37,-6.39,1
28.166,-5.78,-5.54,1
28.188,-4.68,-4.92,0
28.208,,,
28.228,-3.95,-4.44,0
28.248,-3.58,-3.95,0
28.268,-3.34,-3.58,0
28.288,-2.6,-3.21,0
28.308,-1.99,-2.85,0
28.328,-1.75,-2.85,0
28.348,-1.87,-2.72,0
28.369,-1.63,-2.48,0
28.388,-1.26,-2.36,0
28.408,,,
28.428,-1.14,-2.24,0
28.448,-1.26,-2.11,0
28.468,-1.26,-2.11,0
28.488,-1.01,-1.99,0
28.508,-0.77,-1.99,0
28.528,-0.65,-1.99,0
28.548,-0.89,-1.99,0
28.568,-1.01,-1.75,0
28.588,-0.89,-1.87,0
28.608,-0.65,-1.75,0
28.629,-0.53,-1.63,0
28.649,-0.65,-1.63,0
28.669,,,
28.689,-0.65,-1.75,0
28.708,-0.53,-1.5,0
28.729,-0.4,-1.63,0
28.749,-1.75,-2.85,0
28.769,-3.82,-4.68,0
28.789,-5.41,-7.37,0
28.808,-7.12,-9.45,0
28.828,-9.32,-10.3,0
28.848,-10.18,-10.67,0
28.87,,,
28.888,-10.79,-10.91,0
28.908,-10.91,-11.03,0
28.928,-11.03,-11.16,0
28.948,-11.16,-11.16,0
28.968,-11.28,-11.16,0
28.99,-11.28,-11.28,0
29.008,,,
29.028,-11.28,-11.28,0
29.049,-11.4,-11.28,0
29.068,-11.28,-11.28,0
29.089,-11.4,-11.28,0
29.109,-11.28,-11.28,0
29.133,-11.28,-11.28,0
29.153,,,
29.169,-11.4,-11.28,0
29.189,-11.4,-11.4,0
29.209,-11.4,-11.4,0
29.229,-11.4,-11.4,0
29.252,-11.4,-11.4,0
29.277,-11.4,-11.4,0
29.301,-11.4,-11.4,0
29.322,,,
29.328,-11.4,-11.4,1
29.348,,,
29.369,-11.4,-11.4,1
29.389,-11.52,-11.4,1
29.409,-11.4,-11.4,1
29.42,-11.03,-10.91,1
29.445,-10.3,-9.81,1
29.464,-9.45,-7.98,1
29.49,-7.61,-6.51,1
29.51,-6.02,-5.66,1
29.53,,,
29.54,-4.92,-5.05,0
29.56,-4.07,-4.44,0
29.58,-3.58,-3.95,0
29.6,-3.46,-3.58,0
29.62,-2.72,-3.21,0
29.641,-2.11,-2.97,0
29.662,,,
29.688,-1.75,-2.85,0
29.7,-1.87,-2.6,0
29.721,-1.75,-2.6,0
29.74,-1.5,-2.48,0
29.76,-1.14,-2.24,0
29.78,-1.14,-2.24,0
29.801,-1.38,-2.11,0
29.82,-1.14,-1.99,0
29.838,-0.77,-2.11,0
29.858,,,
29.879,-0.65,-2.11,0
29.899,-0.77,-1.99,0
29.919,-1.01,-1.99,0
29.939,-1.01,-1.87,0
29.959,-0.77,-1.75,0
29.979,-0.53,-1.75,0
29.999,-0.65,-1.87,0
30.019,-0.65,-1.75,0
30.039,-0.4,-1.75,0
30.059,-0.4,-1.75,0
30.082,-1.38,-2.48,0
30.099,-3.58,-4.56,0
30.12,,,
30.139,-5.17,-6.88,0
30.159,-6.76,-9.2,0
30.179,-8.96,-10.18,0
30.199,-10.06,-10.54,0
30.219,-10.67,-10.91,0
30.239,-10.91,-11.03,0
30.26,,,
30.279,-11.03,-11.16,0
30.299,-11.03,-11.16,0
30.32,-11.28,-11.28,0
30.339,-11.28,-11.28,0
30.36,-11.28,-11.28,0
30.382,-11.28,-11.28,0
30.403,,,
30.42,-11.28,-11.28,0
30.439,-11.4,-11.28,0
30.459,-11.4,-11.28,0
30.479,-11.4,-11.28,0
30.501,-11.28,-11.28,0
30.526,-11.4,-11.4,0
30.546,,,
30.559,-11.4,-11.4,0
30.579,-11.4,-11.4,0
30.599,-11.4,-11.4,0
30.622,-11.4,-11.4,0
30.645,-11.4,-11.28,0
30.669,-11.4,-11.4,1
30.694,-11.4,-11.4,1
30.714,,,
30.726,-11.4,-11.4,1
30.745,-11.4,-11.4,1
30.765,-11.16,-11.03,1
30.788,-10.42,-10.3,1
30.813,-9.57,-9.08,1
30.833,-7.86,-7.37,1
30.853,,,
30.865,-6.15,-6.27,1
30.885,-5.05,-5.29,1
30.906,-4.19,-4.8,0
30.926,-3.58,-4.31,0
30.946,-3.46,-3.82,0
30.966,-2.85,-3.46,0
30.986,,,
31.006,-2.24,-3.09,0
31.026,-1.87,-2.85,0
31.046,-1.75,-2.72,0
31.054,-1.75,-2.6,0
31.075,-1.5,-2.48,0
31.095,-1.14,-2.36,0
31.12,-1.14,-2.24,0
31.14,-1.5,-2.11,0
31.16,-1.26,-2.11,0
31.18,-0.77,-1.99,0
31.205,-0.65,-1.99,0
31.226,-0.65,-1.99,0
31.251,-1.01,-1.99,0
31.272,-1.01,-1.87,0
31.292,,,
31.294,,,
31.315,-0.65,-1.87,0
31.335,-0.53,-1.75,0
31.355,-0.53,-1.75,0
31.375,-0.53,-1.75,0
31.395,-0.4,-1.75,0
31.414,-0.4,-1.5,0
31.435,-1.14,-2.36,0
31.455,-3.34,-4.19,0
31.468,-5.17,-6.02,0
31.489,,,
31.508,-6.63,-8.71,0
31.529,-8.96,-10.06,0
31.548,-10.18,-10.54,0
31.568,-10.67,-10.79,0
31.589,-10.91,-11.03,0
31.609,-11.03,-11.16,0
31.632,-11.03,-11.16,0
31.653,,,
31.668,-11.28,-11.28,0
31.688,-11.28,-11.16,0
31.708,-11.28,-11.28,0
31.728,-11.4,-11.28,0
31.75,-11.28,-11.28,0
31.775,-11.4,-11.28,0
31.8,-11.28,-11.28,0
31.82,,,
31.828,-11.28,-11.28,0
31.848,,,
31.869,-11.4,-11.28,0
31.869,-11.4,-11.28,0
31.894,-11.4,-11.4,0
31.919,-11.4,-11.4,0
31.943,-11.4,-11.28,0
31.967,-11.4,-11.28,0
31.988,,,
31.989,,,
32.009,-11.4,-11.4,0
32.029,-11.4,-11.4,1
32.05,-11.4,-11.4,1
32.069,-11.4,-11.4,1
32.089,-11.4,-11.4,1
32.11,-11.16,-11.03,1
32.131,,,
32.149,-10.54,-10.18,1
32.169,-9.69,-8.47,1
32.189,-7.98,-6.76,1
32.209,-6.39,-5.9,1
32.229,-5.17,-5.17,0
32.249,-4.31,-4.56,0
32.269,-3.58,-4.19,0
32.288,,,
32.308,-3.46,-3.7,0
32.328,-3.09,-3.34,0
32.348,-2.36,-3.09,0
32.368,-1.87,-2.85,0
32.388,-1.63,-2.72,0
32.408,-1.75,-2.72,0
32.428,-1.5,-2.48,0
32.448,-1.14,-2.36,0
32.468,-1.01,-2.24,0
32.489,-1.26,-2.11,0
32.508,-1.38,-1.99,0
32.528,-0.77,-2.11,0
32.549,,,
32.569,-0.65,-2.11,0
32.588,-0.77,-1.87,0
32.608,-1.01,-1.99,0
32.628,-1.14,-1.87,0
32.648,-0.77,-1.75,0
32.668,-0.53,-1.75,0
32.688,-0.53,-1.87,0
32.708,-0.77,-1.63,0
32.729,-0.53,-1.75,0
32.749,,,
32.769,-0.28,-1.63,0
32.789,-1.01,-1.99,0
32.808,-3.09,-4.07,0
32.83,-4.92,-6.15,0
32.848,-6.39,-8.83,0
32.869,-8.59,-10.06,0
32.889,-10.06,-10.54,0
32.908,-10.67,-10.79,0
32.928,,,
32.949,-10.91,-11.03,0
32.969,-11.03,-11.16,0
32.988,-11.16,-11.16,0
33.008,-11.16,-11.16,0
33.029,-11.28,-11.16,0
33.048,-11.28,-11.28,0
33.073,-11.28,-11.28,0
33.094,,,
33.115,-11.28,-11.28,0
33.135,-11.28,-11.28,0
33.155,-11.4,-11.28,0
33.175,-11.4,-11.28,0
33.194,-11.28,-11.28,0
33.217,-11.4,-11.4,0
33.241,-11.4,-11.28,0
33.262,,,
33.275,-11.4,-11.4,0
33.295,-11.4,-11.28,0
33.314,-11.4,-11.4,0
33.336,-11.4,-11.4,0
33.36,-11.4,-11.4,1
33.385,-11.4,-11.4,1
33.405,,,
33.415,-11.4,-11.4,1
33.435,-11.4,-11.4,1
33.455,-11.28,-11.03,1
33.479,-10.67,-10.3,1
33.504,-9.81,-8.47,1
33.524,-8.1,-6.88,1
33.549,-6.51,-6.02,1
33.569,-5.29,-5.17,0
33.59,-4.31,-4.68,0
33.614,-3.7,-4.19,0
33.634,-3.34,-3.7,0
33.655,-3.09,-3.34,0
33.679,-2.36,-3.09,0
33.7,-1.99,-2.85,0
33.721,-1.63,-2.72,0
33.745,-1.75,-2.6,0
33.766,-1.63,-2.36,0
33.786,,,
33.786,,,
33.804,-1.14,-2.36,0
33.824,-1.14,-2.24,0
33.844,-1.14,-1.99,0
33.864,-1.38,-1.99,0
33.884,-1.01,-2.11,0
33.904,-0.65,-1.99,0
33.925,-0.65,-1.99,0
33.945,-0.89,-1.99,0
33.965,-1.01,-1.75,0
33.985,,,
34.005,-0.77,-1.75,0
34.025,-0.53,-1.75,0
34.045,-0.53,-1.63,0
34.065,-0.65,-1.75,0
34.085,-0.65,-1.63,0
34.105,-0.4,-1.5,0
34.125,-0.77,-1.87,0
34.145,-2.85,-3.95,0
34.165,-4.8,-6.02,0
34.185,-6.15,-8.96,0
34.205,-8.47,-10.06,0
34.225,,,
34.245,-9.81,-10.54,0
34.265,-10.54,-10.79,0
34.285,-10.79,-11.03,0
34.305,-10.91,-11.16,0
34.318,,,
34.339,-10.91,-11.16,0
34.358,-11.28,-11.16,0
34.378,-11.28,-11.16,0
34.398,-11.28,-11.28,0
34.419,-11.28,-11.28,0
34.442,-11.28,-11.4,0
34.466,-11.4,-11.28,0
34.486,,,
34.499,-11.4,-11.28,0
34.519,-11.28,-11.28,0
34.539,-11.28,-11.28,0
34.56,-11.4,-11.28,0
34.585,-11.4,-11.4,0
34.609,-11.4,-11.4,0
34.63,,,
34.639,-11.4,-11.4,0
34.659,-11.4,-11.4,0
34.679,-11.4,-11.4,0
34.704,-11.4,-11.4,1
34.729,-11.4,-11.4,1
34.753,-11.4,-11.4,1
34.777,-11.4,-11.4,1
34.798,,,
34.809,-11.28,-11.16,1
34.83,-10.79,-10.42,1
34.849,-10.06,-8.83,1
34.871,-9.32,-7.12,1
34.892,-7.61,-6.02,1
34.913,,,
34.929,-6.15,-5.29,1
34.949,-5.17,-4.68,0
34.969,-4.19,-4.31,0
34.989,-3.58,-3.7,0
35.009,-3.21,-3.46,0
35.029,-2.97,-3.09,0
35.049,-2.36,-2.85,0
35.069,-1.87,-2.72,0
35.089,-1.63,-2.72,0
35.109,,,
35.129,-1.75,-2.48,0
35.134,-1.75,-2.36,0
35.154,-1.14,-2.24,0
35.174,,,
35.194,-1.01,-2.11,0
35.215,-1.01,-1.99,0
35.235,-1.26,-2.11,0
35.254,-1.01,-1.99,0
35.274,-0.53,-1.99,0
35.294,-0.53,-1.99,0
35.315,-0.77,-1.75,0
35.334,-0.89,-1.75,0
35.354,-0.77,-1.75,0
35.375,-0.53,-1.75,0
35.395,-0.4,-1.63,0
35.416,-0.53,-1.63,0
35.441,-0.53,-1.5,0
35.461,-0.4,-1.5,0
35.48,-2.36,-3.58,0
35.506,-4.44,-5.54,0
35.527,-6.02,-8.47,0
35.548,-8.35,-9.93,0
35.572,-9.81,-10.42,0
35.592,-10.54,-10.79,0
35.616,-10.79,-11.03,0
35.641,-10.79,-11.03,0
35.666,-11.16,-11.16,0
35.691,-11.28,-11.28,0
35.711,,,
35.711,,,
35.728,-11.4,-11.28,0
35.748,-11.28,-11.28,0
35.768,-11.28,-11.4,0
35.788,-11.4,-11.4,0
35.81,-11.4,-11.4,0
35.834,-11.4,-11.4,0
35.858,-11.4,-11.4,0
35.879,,,
35.888,-11.52,-11.4,0
35.908,-11.52,-11.4,0
35.928,-11.52,-11.52,0
35.953,-11.4,-11.4,0
35.977,-11.52,-11.4,0
36.002,-11.52,-11.52,0
36.023,,,
36.033,-11.52,-11.52,0
36.053,-11.52,-11.52,1
36.074,-11.64,-11.52,1
36.096,-11.52,-11.52,1
36.121,-11.52,-11.52,1
36.145,-11.4,-11.4,1
36.17,-10.91,-10.79,1
36.191,,,
36.194,,,
36.214,-10.42,-9.57,1
36.233,-9.69,-7.73,1
36.254,-8.1,-6.39,1
36.274,-6.27,-5.54,1
36.294,-5.29,-4.92,0
36.313,-4.44,-4.31,0
36.333,-3.58,-3.7,0
36.353,-3.09,-3.34,0
36.366,,,
36.388,-2.85,-2.85,0
36.407,-2.85,-2.6,0
36.427,-1.99,-2.48,0
36.447,-1.5,-2.36,0
36.467,-1.38,-2.11,0
36.486,-1.38,-1.99,0
36.507,-1.38,-1.87,0
36.527,-1.01,-1.63,0
36.547,-0.77,-1.63,0
36.566,,,
36.586,-0.89,-1.63,0
36.607,-1.14,-1.5,0
36.627,-0.77,-1.5,0
36.647,-0.53,-1.38,0
36.667,-0.53,-1.26,0
36.687,-0.77,-1.38,0
36.707,-1.01,-1.26,0
36.727,-0.65,-1.14,0
36.746,-0.4,-1.14,0
36.767,-0.4,-1.26,0
36.788,-0.53,-0.89,0
36.808,-0.4,-1.01,0
36.827,,,
36.849,-1.99,-2.85,0
36.868,-4.19,-5.05,0
36.888,-5.78,-8.1,0
36.908,-7.98,-9.69,0
36.927,-9.57,-10.42,0
36.947,-10.42,-10.79,0
36.968,-10.67,-11.03,0
36.988,-10.91,-11.16,0
37.009,-11.16,-11.28,0
37.033,-11.28,-11.28,0
37.059,-11.28,-11.4,0
37.083,-11.28,-11.28,0
37.099,,,
37.108,,,
37.127,-11.4,-11.4,0
37.153,-11.28,-11.4,0
37.168,-11.4,-11.4,0
37.189,-11.28,-11.4,0
37.208,-11.4,-11.4,0
37.228,-11.4,-11.4,0
37.248,,,
37.272,-11.4,-11.4,0
37.288,-11.4,-11.52,0
37.309,-11.4,-11.52,0
37.328,-11.4,-11.52,0
37.348,-11.4,-11.52,0
37.37,-11.4,-11.4,0
37.394,-11.4,-11.52,1
37.415,,,
37.428,-11.52,-11.52,1
37.448,-11.52,-11.52,1
37.468,-11.4,-11.52,1
37.489,-11.4,-11.4,1
37.513,-10.91,-10.91,1
37.538,-10.3,-9.69,1
37.558,,,
37.568,-9.45,-7.86,1
37.583,-7.61,-6.39,1
37.603,-6.02,-5.54,1
37.624,,,
37.643,-4.92,-5.05,0
37.664,-4.19,-4.31,0
37.684,-3.7,-3.82,0
37.703,-3.09,-3.46,0
37.723,-2.72,-2.97,0
37.744,-2.48,-2.72,0
37.764,-2.24,-2.6,0
37.784,-1.75,-2.36,0
37.804,-1.38,-2.24,0
37.823,,,
37.844,-1.38,-2.11,0
37.864,-1.26,-1.75,0
37.884,-1.14,-1.75,0
37.903,-1.01,-1.63,0
37.924,-1.01,-1.63,0
37.944,-1.01,-1.63,0
37.964,-0.89,-1.63,0
37.983,-0.77,-1.38,0
38.004,-0.65,-1.38,0
38.023,-0.65,-1.38,0
38.044,-0.77,-1.26,0
38.064,-0.77,-1.26,0
38.084,,,
38.104,-0.53,-1.38,0
38.124,-0.4,-1.26,0
38.143,-0.53,-1.01,0
38.164,-0.53,-1.14,0
38.184,-1.75,-2.6,0
38.204,-3.82,-4.68,0
38.224,-5.54,-7.61,0
38.244,-7.61,-9.57,0
38.263,-9.45,-10.42,0
38.283,-10.3,-10.67,0
38.308,-10.54,-11.03,0
38.329,,,
38.344,-10.91,-11.16,0
38.363,-11.16,-11.28,0
38.384,-11.16,-11.28,0
